Иванов Петр Сергеевич	<Ф.И.О.>
м	<Пол.>
34	<Возраст, лет>
	<Примечания>
29.5.2019	<Дата проведения исследования: день, месяц, год>
7	<Общее количество каналов>
250.	<Частота дискретизации, Гц>
1	<Количество групп физиологических сигналов>
ЭЭГ	<Тип сигналов 1-й группы>
7	<Количество сигналов 1-й группы>
0,1250	<Вес бита сигналов 1-й группы>
мкВ	<Единицы измерения сигналов 1-й группы>
	<Полярность значений сигналов ЭЭГ – в соответствии с конвенцией о полярности. Негативность отражена минусом.>
598fe7f2-b6e2-4bc7-9e33-ac915179c30f	<Идентификатор исследования>
1	<Количество фрагментов записи>
10:40:27.060	<Время начала 1-го фрагмента>
104400	<Продолжительность 1-го фрагмента в отсчетах, отсчетов>
Cz-A1	Fz-A1	F4-A1	F3-A1	O1-A1	A2-A1	A1-N
-29	-31	-32	-34	3	-27	-32
-35	-28	-24	-32	9	-15	-24
-48	-26	-18	-36	8	-7	44
-73	-40	-30	-55	-5	-14	66
-90	-61	-50	-71	-15	-18	10
-90	-72	-65	-77	-16	-7	-37
-89	-82	-81	-82	-24	-1	-46
-88	-97	-100	-89	-34	-6	-22
-80	-101	-107	-87	-34	-4	31
-70	-88	-90	-76	-34	12	70
-64	-70	-59	-60	-44	26	28
-62	-55	-30	-43	-56	31	-42
-60	-47	-15	-34	-62	24	-56
-61	-48	-15	-36	-66	9	-34
-65	-57	-30	-41	-66	-12	-52
-67	-69	-53	-48	-53	-32	-85
-66	-79	-76	-60	-35	-46	-83
-65	-84	-85	-71	-24	-47	-34
-58	-78	-75	-73	-18	-30	8
-42	-66	-55	-66	-14	-10	-3
-28	-56	-36	-61	-15	-5	-58
-20	-46	-22	-52	-22	-10	-72
-8	-27	-5	-29	-21	-12	-6
5	-1	10	2	-10	-5	74
15	22	21	30	5	7	105
28	45	37	54	25	35	122
50	73	61	78	49	85	143
75	95	85	94	70	132	146
91	102	98	95	76	145	124
95	99	100	86	69	129	105
86	85	88	72	54	91	56
60	52	57	47	30	28	-23
17	4	4	2	1	-46	-63
-30	-50	-54	-53	-26	-97	-42
-71	-101	-109	-105	-45	-119	-60
-102	-144	-154	-155	-57	-125	-126
-118	-169	-181	-191	-58	-120	-137
-113	-168	-180	-197	-47	-101	-58
-93	-145	-155	-174	-30	-84	-4
-69	-109	-116	-137	-17	-78	-22
-51	-76	-77	-98	-16	-71	-58
-44	-54	-49	-68	-24	-55	-67
-51	-47	-37	-52	-36	-43	-66
-61	-50	-38	-52	-45	-37	-54
-61	-48	-40	-48	-36	-24	-37
-42	-28	-29	-32	-11	-8	-34
-7	8	-3	1	22	-5	-41
35	51	34	42	50	-9	-16
70	87	69	81	63	-15	10
80	100	84	101	55	-28	-10
67	86	76	95	33	-45	-63
43	56	53	72	11	-49	-79
17	27	29	44	0	-32	-47
2	11	11	26	2	-14	-4
-4	8	3	21	11	-5	-2
-1	15	2	31	19	-4	-51
4	24	2	46	17	-6	-114
9	32	6	62	9	-11	-112
16	41	16	76	0	-3	-61
27	54	33	86	-1	17	-42
39	65	48	91	7	33	-72
51	71	57	90	25	28	-62
58	69	54	83	41	11	2
62	60	43	74	48	1	38
69	58	38	71	47	7	9
82	73	55	81	42	32	-15
100	104	92	101	37	67	-17
115	136	133	118	38	89	-13
120	150	153	119	46	83	4
109	129	134	93	57	55	48
80	74	76	46	65	26	58
45	6	1	-5	62	13	24
16	-48	-57	-41	49	19	21
-2	-72	-81	-53	28	33	71
-11	-64	-68	-44	4	40	66
-7	-33	-28	-23	-12	37	-11
8	5	19	-2	-13	27	-47
26	34	55	9	-4	18	20
41	45	68	9	5	14	79
51	40	63	4	8	17	57
56	31	51	2	5	29	13
57	26	44	7	-3	51	21
57	29	46	18	-12	74	39
58	38	56	30	-14	88	23
56	47	67	35	-11	86	-14
46	48	68	30	-11	64	-41
27	40	57	18	-14	26	-61
6	26	35	6	-17	-10	-44
-12	10	11	-3	-18	-28	13
-24	-7	-11	-9	-19	-21	51
-27	-22	-26	-13	-19	0	24
-19	-28	-27	-13	-21	19	-3
-7	-23	-16	-11	-27	25	12
1	-10	2	-5	-38	14	22
6	10	24	4	-46	-3	-18
7	33	42	19	-45	-16	-63
4	46	49	30	-35	-19	-87
-3	41	38	30	-21	-17	-75
-12	22	16	21	-8	-14	-30
-20	-1	-6	8	-1	-11	13
-30	-20	-22	-2	-5	-3	3
-39	-27	-24	-5	-16	16	-14
-44	-20	-12	1	-26	46	18
-45	-8	4	12	-29	76	65
-47	-5	10	14	-31	84	48
-50	-16	0	1	-30	63	-8
-50	-30	-19	-16	-25	25	-45
-44	-38	-34	-27	-18	-10	-28
-32	-34	-38	-24	-12	-27	3
-19	-21	-31	-9	-5	-18	0
-11	-8	-19	7	3	1	-44
-14	-9	-15	9	7	7	-51
-33	-29	-27	-9	2	-9	-2
-57	-56	-46	-42	-9	-39	27
-70	-74	-59	-68	-21	-63	-9
-66	-73	-58	-74	-27	-66	-44
-51	-60	-50	-62	-29	-44	-54
-40	-49	-45	-48	-29	-10	-49
-45	-54	-57	-49	-33	9	-32
-70	-79	-84	-69	-45	5	-8
-102	-108	-111	-95	-60	-11	-19
-119	-122	-120	-107	-68	-23	-41
-110	-109	-102	-93	-61	-18	-18
-77	-73	-63	-57	-39	1	27
-40	-31	-21	-16	-13	27	18
-19	-1	6	9	0	45	-26
-22	5	13	9	-2	41	-54
-43	-5	4	-10	-19	19	-35
-69	-25	-11	-36	-39	-11	2
-88	-42	-26	-54	-49	-40	19
-91	-51	-34	-60	-42	-61	-20
-82	-48	-34	-51	-26	-71	-63
-72	-40	-31	-34	-15	-67	-48
-70	-35	-29	-22	-19	-56	-6
-76	-34	-29	-20	-35	-45	-21
-82	-36	-30	-25	-52	-36	-67
-80	-35	-28	-29	-58	-25	-70
-65	-26	-19	-26	-47	-11	-21
-39	-9	-4	-12	-27	0	1
-14	8	11	6	-10	3	-29
-1	18	22	19	-4	0	-57
-1	16	23	21	-8	-6	-25
-8	7	16	12	-10	-10	24
-11	-3	7	0	-4	-7	44
-8	-9	0	-9	10	4	45
2	-7	-1	-9	27	15	38
16	1	3	0	35	16	-10
28	12	12	12	32	8	-40
34	19	18	18	20	0	16
33	14	16	14	7	3	89
29	0	3	0	5	20	66
23	-21	-16	-20	16	41	25
15	-43	-37	-44	38	51	61
7	-60	-53	-64	58	42	104
0	-63	-57	-69	64	19	61
-4	-50	-47	-57	57	-4	3
-2	-28	-29	-35	43	-12	-5
1	-10	-17	-15	28	-4	18
1	-9	-25	-11	18	4	29
-6	-31	-54	-26	16	-2	17
-15	-63	-91	-52	22	-24	-28
-19	-88	-115	-70	28	-53	-57
-16	-90	-112	-66	28	-79	-38
-5	-68	-84	-43	19	-93	-7
9	-33	-44	-15	7	-89	-15
22	-3	-11	0	-3	-71	-29
26	9	3	0	-10	-51	-22
25	7	5	-11	-9	-36	25
26	2	5	-18	1	-22	88
31	3	12	-14	16	-8	107
35	10	23	-1	28	-2	42
38	17	33	9	32	-6	-15
42	24	38	13	29	-8	17
49	31	40	11	26	1	74
59	44	45	17	23	17	62
70	63	57	33	23	35	34
77	83	70	56	27	50	36
75	92	75	71	34	53	35
61	80	62	68	38	32	15
40	50	32	49	36	-3	27
21	17	1	26	28	-32	44
15	1	-11	16	18	-42	30
20	10	0	25	7	-36	27
26	31	28	43	-5	-22	69
24	48	52	54	-17	-10	66
13	50	57	50	-22	-8	-10
-1	36	42	36	-21	-20	-64
-12	15	16	21	-19	-36	-31
-14	-1	-9	13	-20	-45	3
-6	-7	-23	14	-24	-47	-19
6	-2	-22	18	-26	-39	-54
16	5	-11	16	-23	-25	-39
14	3	-5	2	-14	-11	4
0	-9	-11	-22	-3	-5	34
-22	-29	-25	-50	6	-4	18
-45	-50	-47	-75	8	-8	-25
-62	-68	-70	-93	0	-16	-58
-64	-74	-85	-99	-9	-22	-41
-48	-65	-83	-89	-11	-22	11
-18	-41	-61	-64	0	-16	68
16	-6	-24	-29	20	-5	90
53	36	26	14	49	15	101
87	82	82	59	82	47	142
115	119	127	96	109	86	204
133	138	148	116	124	123	199
139	137	142	118	123	147	123
130	119	115	104	112	144	55
102	88	74	76	92	107	44
56	46	26	38	63	41	31
1	-1	-20	-5	30	-30	-23
-48	-49	-62	-47	1	-89	-87
-84	-92	-98	-83	-21	-121	-90
-100	-122	-126	-102	-38	-124	-31
-95	-130	-136	-101	-48	-105	27
-75	-114	-126	-82	-46	-78	20
-54	-85	-103	-58	-39	-58	-13
-43	-56	-78	-42	-31	-51	-30
-40	-36	-58	-37	-24	-51	-28
-42	-29	-47	-43	-17	-53	-21
-43	-33	-43	-50	-13	-55	9
-37	-36	-39	-47	-11	-50	23
-19	-30	-27	-29	-7	-33	0
2	-15	-8	-8	-3	-10	-6
17	-1	8	3	-2	10	42
19	8	19	2	-5	24	48
14	14	25	-7	-8	33	-15
8	18	29	-18	-6	33	-54
8	22	33	-22	0	30	-17
15	24	37	-16	9	28	-2
24	20	35	-8	11	28	-43
24	7	21	-8	1	19	-82
11	-10	1	-16	-21	2	-72
-5	-21	-13	-19	-44	-17	-32
-16	-14	-11	-11	-56	-30	24
-12	11	10	11	-50	-29	50
8	51	48	42	-28	-9	14
39	92	90	73	0	27	-38
64	117	117	89	19	62	-17
69	116	116	84	20	78	28
54	92	89	62	4	71	9
29	58	51	37	-16	52	-26
8	31	20	23	-29	34	25
-1	21	10	22	-29	31	81
-1	26	20	31	-18	43	55
-1	35	37	41	-7	61	23
-9	35	44	42	-4	73	48
-22	24	35	33	-12	74	23
-32	5	13	17	-23	67	-20
-32	-13	-13	2	-31	56	61
-25	-25	-34	-4	-33	45	178
-13	-26	-39	3	-26	40	121
1	-14	-25	22	-16	40	23
14	7	2	50	-9	43	88
27	34	39	79	-9	50	180
45	65	80	102	-9	62	112
69	92	113	111	-5	71	38
89	106	129	104	5	71	74
99	101	121	87	21	65	101
94	81	95	65	35	54	68
76	54	61	48	39	41	68
53	34	35	43	28	27	64
33	31	30	51	9	13	19
19	40	43	62	-11	-3	27
6	47	59	60	-27	-23	100
-3	44	65	46	-32	-34	97
-12	27	53	21	-22	-24	40
-20	0	25	-5	-6	2	50
-24	-23	-3	-24	8	33	110
-22	-30	-16	-25	16	54	114
-14	-18	-7	-9	16	57	88
-10	0	11	10	6	38	64
-14	8	24	21	-8	6	29
-23	4	22	17	-18	-24	1
-34	-13	5	-1	-18	-47	21
-45	-38	-22	-28	-12	-61	43
-51	-55	-45	-51	-3	-69	28
-46	-54	-49	-55	3	-65	-7
-34	-35	-33	-39	3	-51	-5
-24	-12	-13	-11	-5	-35	29
-19	1	-1	13	-19	-26	43
-17	2	-3	22	-31	-25	-2
-14	-5	-14	13	-39	-29	-31
-11	-17	-29	-5	-40	-33	22
-6	-25	-38	-23	-36	-31	86
-2	-27	-41	-31	-27	-27	53
-7	-31	-43	-30	-17	-33	-17
-23	-43	-54	-26	-8	-54	-32
-44	-64	-75	-28	-3	-85	-9
-63	-85	-97	-37	-3	-109	-13
-72	-97	-109	-49	-11	-113	-39
-69	-93	-104	-56	-25	-91	-73
-57	-75	-82	-52	-39	-52	-82
-45	-55	-55	-40	-48	-18	-48
-42	-44	-40	-27	-51	-5	-2
-54	-51	-45	-21	-48	-11	-2
-78	-71	-69	-29	-41	-26	-20
-102	-94	-101	-48	-30	-41	-31
-119	-111	-127	-74	-15	-51	-35
-126	-122	-141	-102	0	-54	-22
-127	-129	-142	-128	8	-50	17
-122	-130	-128	-140	11	-40	7
-114	-123	-103	-133	8	-29	-49
-108	-110	-77	-113	0	-20	-45
-103	-94	-57	-89	-7	-17	28
-95	-73	-44	-65	-7	-17	24
-81	-53	-39	-48	0	-18	-50
-66	-39	-37	-43	6	-14	-60
-49	-31	-33	-44	11	2	14
-32	-24	-22	-46	14	30	40
-18	-21	-7	-47	13	53	2
-10	-21	3	-48	10	57	-16
-2	-17	12	-42	8	49	11
10	-5	20	-25	11	38	41
26	13	28	-2	18	29	66
37	31	36	18	25	21	68
41	44	40	32	32	15	27
39	47	41	36	38	12	-35
35	42	39	30	43	5	-48
36	37	35	20	45	-7	-29
48	40	37	17	46	-19	-26
73	57	49	29	48	-25	-53
102	82	67	51	48	-29	-69
122	103	82	79	45	-32	-53
124	113	90	104	37	-28	-3
111	112	92	121	26	-9	34
94	107	92	128	16	19	19
84	103	91	126	8	45	-29
80	99	86	115	0	58	-32
75	88	72	95	-12	51	-4
59	66	48	68	-30	24	-13
33	35	20	38	-50	-8	-69
6	6	-1	11	-62	-27	-85
-6	-6	-7	-3	-56	-21	-36
1	-2	3	-4	-35	2	11
26	14	20	2	-9	30	-15
51	31	32	12	9	48	-64
66	42	38	23	15	52	-63
72	49	40	33	14	44	-12
74	55	45	42	15	31	14
80	63	53	52	27	18	7
92	72	62	60	51	9	-6
103	77	67	64	76	7	-7
106	75	65	62	93	11	-2
98	65	56	53	95	18	19
78	51	41	42	82	31	21
54	33	23	27	62	44	-17
30	13	6	9	40	48	-70
10	-5	-10	-12	22	35	-82
-7	-24	-27	-36	7	11	-67
-19	-39	-39	-53	-6	-12	-64
-19	-41	-42	-52	-13	-27	-93
-6	-30	-36	-32	-13	-32	-110
10	-16	-28	-6	-10	-31	-78
21	-5	-22	12	-13	-32	-33
25	3	-14	21	-20	-35	-52
22	14	0	22	-30	-36	-92
18	28	15	23	-42	-30	-72
21	48	34	34	-48	-9	-7
35	70	54	55	-42	24	25
49	77	61	71	-30	54	28
53	62	49	65	-21	65	6
46	32	28	39	-14	59	-48
36	3	7	7	-8	43	-87
24	-18	-10	-19	-4	16	-55
10	-30	-27	-32	-3	-14	-35
0	-29	-38	-26	-4	-41	-97
-11	-22	-43	-10	-5	-58	-165
-26	-19	-45	0	-9	-69	-132
-38	-19	-42	-1	-11	-72	-56
-40	-18	-32	-12	-8	-61	-43
-30	-16	-18	-26	-1	-37	-93
-13	-14	-6	-39	2	-7	-108
0	-14	0	-43	2	20	-65
4	-14	2	-37	-1	42	-41
-7	-15	0	-27	-7	49	-95
-31	-19	-7	-24	-11	38	-131
-53	-19	-11	-25	-6	17	-75
-59	-11	-5	-25	7	6	17
-38	8	15	-16	26	17	66
8	40	52	8	46	54	118
70	83	100	51	64	108	180
130	131	152	103	75	164	186
168	169	192	145	77	202	139
171	183	203	161	69	212	124
140	166	181	146	51	192	101
88	124	132	109	25	150	8
32	67	69	62	-2	97	-85
-13	12	9	18	-27	43	-69
-42	-28	-33	-15	-47	-1	-17
-54	-51	-55	-39	-59	-30	-21
-54	-59	-57	-56	-62	-39	-53
-48	-55	-47	-65	-56	-29	-52
-43	-48	-35	-68	-48	-13	-36
-46	-48	-31	-69	-46	-7	-11
-62	-57	-41	-72	-56	-23	3
-82	-68	-59	-73	-74	-54	-24
-96	-76	-74	-69	-88	-81	-66
-99	-76	-81	-60	-91	-92	-36
-89	-68	-77	-49	-81	-81	17
-69	-54	-63	-37	-60	-55	-10
-52	-44	-49	-32	-39	-28	-81
-51	-46	-44	-41	-30	-16	-74
-62	-57	-49	-58	-33	-22	-17
-70	-67	-55	-67	-37	-33	17
-64	-66	-55	-60	-31	-32	25
-45	-57	-50	-43	-14	-18	25
-23	-45	-43	-23	7	2	-12
-9	-35	-38	-11	26	20	-25
-13	-37	-39	-19	33	25	22
-35	-51	-49	-44	25	13	43
-59	-66	-57	-68	9	-11	-38
-68	-72	-59	-73	-2	-40	-114
-61	-69	-56	-61	-9	-64	-106
-48	-62	-56	-41	-13	-81	-84
-40	-57	-61	-23	-15	-92	-114
-46	-56	-70	-19	-13	-94	-125
-66	-62	-80	-32	-10	-90	-87
-89	-70	-86	-57	-8	-84	-55
-106	-73	-85	-78	-8	-77	-71
-109	-74	-80	-87	-15	-72	-93
-102	-72	-73	-79	-29	-71	-111
-86	-64	-63	-55	-41	-71	-119
-65	-51	-49	-23	-42	-64	-88
-48	-41	-37	0	-30	-51	-13
-40	-37	-30	0	-8	-40	19
-39	-38	-28	-17	14	-33	-25
-41	-37	-25	-39	29	-25	-76
-41	-30	-20	-49	32	-14	-62
-37	-18	-11	-41	24	-4	-39
-28	-5	-3	-18	12	0	-47
-14	3	0	8	8	1	-63
5	6	0	24	15	3	-47
23	2	-6	22	30	5	-9
35	-3	-12	8	44	13	39
40	-5	-10	-6	51	30	55
38	0	0	-10	50	51	22
30	8	14	-2	45	62	-17
25	19	24	16	44	60	8
30	31	31	41	50	50	44
47	44	39	62	64	42	21
70	53	46	69	76	37	-37
91	57	55	64	81	39	-52
106	59	66	55	82	45	-26
112	63	79	50	81	50	14
108	68	87	53	79	49	36
98	72	87	65	74	43	25
85	72	79	76	65	32	-9
67	60	60	70	50	16	0
48	34	31	43	35	-1	25
30	0	-2	4	26	-21	-8
13	-32	-31	-31	24	-43	-83
-3	-54	-48	-53	24	-63	-101
-17	-60	-48	-55	20	-74	-72
-28	-53	-36	-44	8	-72	-49
-34	-39	-22	-31	-7	-59	-45
-34	-27	-17	-25	-17	-33	-38
-24	-20	-19	-25	-15	-1	-49
-12	-17	-26	-27	-2	25	-45
-9	-20	-33	-29	9	32	-10
-19	-28	-34	-36	9	18	11
-32	-33	-27	-43	0	-4	-23
-35	-30	-12	-43	-11	-19	-40
-23	-16	5	-33	-15	-16	5
0	2	18	-13	-10	6	66
21	21	24	10	-2	35	73
30	33	22	31	2	56	44
18	34	16	38	1	58	15
-4	29	12	28	-3	44	25
-22	24	11	10	-6	21	45
-28	20	11	-6	-6	-4	27
-24	15	10	-14	-4	-24	-44
-17	11	8	-14	-3	-35	-88
-16	4	2	-9	-7	-38	-67
-22	-2	-4	-2	-14	-33	-23
-25	-2	-5	8	-16	-20	-24
-17	10	3	24	-12	-6	-46
-3	28	17	42	-6	-1	-50
5	39	24	51	-5	-9	-28
3	35	19	43	-11	-23	-21
-9	16	7	21	-21	-32	-30
-23	-5	-4	-1	-32	-29	-42
-24	-15	-4	-11	-39	-13	-43
-8	-5	13	1	-37	10	-39
17	18	39	28	-31	28	-17
34	39	55	50	-25	29	-16
34	44	50	53	-19	13	-71
21	31	27	38	-13	-8	-137
1	8	-1	13	-7	-29	-106
-14	-12	-22	-8	-5	-43	-28
-19	-22	-26	-18	-7	-51	-27
-14	-23	-17	-17	-10	-53	-88
-6	-22	-7	-15	-14	-52	-88
1	-24	-4	-16	-11	-43	-43
9	-29	-8	-18	0	-25	-32
11	-34	-19	-22	15	-3	-46
6	-39	-33	-24	23	11	-34
1	-33	-37	-19	23	18	-25
3	-10	-22	-1	17	20	-14
16	26	9	28	6	23	14
40	70	54	62	-2	33	30
74	114	105	96	0	58	-16
109	144	144	121	11	89	-69
125	144	153	123	20	106	-72
113	114	124	101	21	95	-38
81	71	77	68	18	60	-42
45	38	33	44	13	17	-83
15	22	7	37	8	-21	-111
1	26	4	46	5	-44	-78
2	39	16	61	3	-51	-40
10	45	27	69	-3	-49	-50
12	34	24	59	-16	-48	-99
8	12	10	34	-28	-47	-115
3	-7	-3	9	-34	-43	-89
-1	-17	-10	-4	-32	-35	-59
-7	-19	-14	-9	-26	-25	-70
-19	-20	-19	-13	-25	-21	-98
-34	-24	-27	-22	-33	-22	-113
-45	-29	-33	-34	-44	-20	-89
-43	-27	-30	-41	-47	-6	-51
-26	-13	-15	-33	-41	16	-32
2	8	8	-9	-28	35	-54
31	32	30	23	-16	42	-85
48	46	42	52	-12	35	-81
48	47	43	65	-19	22	-33
38	42	39	62	-29	17	-12
32	41	42	55	-30	34	-43
38	52	55	52	-17	68	-62
48	67	70	53	0	95	-2
50	72	71	47	8	96	56
35	58	54	29	1	72	37
10	27	23	1	-15	41	-8
-15	-5	-6	-27	-32	19	13
-28	-27	-21	-45	-41	20	45
-22	-27	-16	-44	-36	42	27
-4	-9	0	-29	-22	71	-10
10	10	15	-15	-8	87	-16
10	20	17	-14	-1	83	-34
-2	16	6	-23	-1	66	-53
-20	0	-12	-37	-5	43	-18
-35	-20	-32	-49	-10	23	39
-41	-37	-42	-49	-13	13	25
-34	-37	-35	-33	-12	17	-16
-19	-20	-13	-9	-5	31	1
-4	3	14	10	3	45	44
5	27	38	19	11	53	17
12	43	53	19	18	49	-51
17	46	53	11	23	32	-88
17	36	40	-1	25	12	-52
14	19	20	-12	24	-1	23
10	2	2	-14	22	-7	61
5	-9	-9	-8	20	-8	5
1	-17	-15	0	15	-11	-59
-2	-22	-18	10	7	-20	-53
-2	-23	-19	18	-3	-36	-35
0	-20	-19	21	-13	-49	-82
2	-19	-22	13	-19	-55	-103
-2	-24	-31	-2	-19	-56	-41
-9	-30	-41	-18	-10	-52	47
-13	-30	-41	-23	5	-39	101
-5	-16	-24	-9	23	-14	150
21	17	17	28	40	30	182
68	72	80	82	57	93	180
122	130	145	131	71	158	175
156	165	183	148	79	196	189
153	155	174	120	78	186	149
112	102	118	55	71	128	48
47	23	33	-24	56	39	-37
-24	-55	-51	-97	32	-47	-41
-84	-112	-113	-143	4	-107	-25
-119	-134	-140	-154	-20	-134	-30
-128	-124	-133	-140	-40	-139	-51
-118	-98	-107	-113	-51	-137	-59
-99	-74	-81	-86	-51	-137	-52
-78	-64	-68	-68	-39	-137	-17
-62	-70	-76	-61	-22	-131	8
-55	-87	-97	-66	-5	-112	-13
-55	-102	-116	-73	8	-83	-46
-56	-101	-118	-72	17	-55	-3
-52	-80	-97	-58	17	-37	62
-43	-47	-59	-34	10	-31	45
-31	-17	-20	-8	1	-32	-28
-19	0	3	9	-6	-31	-40
-12	0	6	12	-9	-25	-10
-11	-14	-8	0	-7	-20	-3
-15	-32	-31	-18	-3	-22	-14
-20	-43	-47	-33	0	-30	-4
-19	-42	-47	-34	5	-38	-9
-10	-28	-31	-23	11	-39	-18
2	-11	-10	-9	17	-33	0
13	-2	4	-3	20	-24	5
20	-4	6	-7	20	-17	-65
15	-20	-8	-23	17	-21	-130
-5	-51	-41	-49	8	-42	-101
-39	-91	-85	-82	-8	-73	-32
-77	-130	-127	-112	-25	-98	-35
-107	-156	-156	-132	-39	-106	-68
-123	-165	-170	-139	-46	-97	-61
-120	-153	-164	-131	-46	-72	-20
-100	-125	-140	-110	-39	-37	2
-75	-90	-106	-81	-30	-11	17
-53	-61	-76	-54	-25	-3	36
-35	-42	-53	-29	-24	-6	51
-19	-30	-35	-9	-22	-3	59
-4	-23	-23	6	-20	10	75
4	-19	-18	15	-17	27	60
8	-13	-13	18	-17	42	-8
7	-4	-5	18	-19	48	-78
0	5	3	15	-25	41	-49
-8	13	12	14	-34	26	30
-7	21	21	19	-39	17	46
3	30	32	28	-37	21	-12
20	36	39	36	-27	30	-36
35	40	42	43	-13	36	-9
43	41	44	46	2	40	18
42	39	45	42	16	43	22
31	34	43	31	26	45	31
21	28	40	17	33	47	38
17	24	38	4	34	46	53
18	21	35	-5	32	36	64
20	13	26	-12	26	15	39
18	1	15	-15	18	-4	-10
12	-10	4	-14	10	-14	-3
6	-16	1	-10	6	-12	56
3	-13	8	-2	6	-3	100
10	4	29	10	8	5	86
24	31	57	24	8	10	42
39	56	81	32	3	10	-19
47	68	88	33	-6	8	-46
45	63	75	28	-16	6	-19
38	46	50	20	-23	5	18
34	33	29	20	-21	6	11
40	33	26	31	-8	10	11
54	47	43	50	13	22	62
67	66	69	67	32	44	120
73	80	90	75	43	73	121
71	85	95	76	42	99	94
66	85	86	77	34	111	73
62	84	72	79	25	106	67
57	82	57	79	16	85	55
45	73	42	67	6	51	37
23	50	25	40	-1	17	-8
-2	20	8	5	-4	-6	-50
-26	-11	-9	-27	-5	-23	-33
-42	-35	-26	-46	-6	-38	39
-50	-46	-40	-47	-6	-55	56
-55	-45	-52	-36	-9	-71	-8
-60	-41	-62	-27	-18	-86	-62
-68	-41	-72	-29	-27	-97	-36
-74	-46	-77	-40	-29	-94	7
-68	-50	-72	-50	-17	-75	25
-50	-48	-57	-51	6	-44	26
-26	-37	-36	-39	32	-11	37
-8	-24	-16	-21	51	14	62
-1	-14	-6	-5	58	26	94
-6	-10	-7	1	52	21	71
-19	-9	-12	1	40	3	10
-28	-8	-15	1	32	-19	4
-25	1	-10	10	34	-33	72
-11	18	2	26	44	-29	99
0	29	14	34	52	-13	71
-1	23	13	26	47	2	55
-16	3	1	6	28	11	51
-35	-17	-12	-11	5	14	37
-51	-31	-20	-21	-14	10	69
-59	-35	-23	-20	-27	3	108
-55	-27	-20	-10	-31	-3	57
-43	-14	-16	-3	-28	-7	-32
-35	-8	-16	-9	-30	-16	-15
-36	-11	-21	-22	-40	-30	34
-36	-13	-22	-25	-50	-37	11
-31	-4	-11	-10	-53	-30	-31
-22	11	5	15	-49	-14	-24
-11	26	20	38	-42	-2	-27
0	36	26	48	-32	-3	-31
10	39	26	43	-23	-20	0
21	40	25	33	-17	-39	16
36	48	33	31	-9	-44	-19
55	69	54	45	2	-23	3
71	92	80	69	11	10	69
72	103	93	88	11	37	44
59	92	84	89	0	42	-45
37	63	58	70	-17	22	-20
18	28	26	42	-34	-9	69
9	2	3	18	-42	-29	62
12	-4	-2	7	-38	-25	-6
19	4	4	9	-27	-4	-12
24	19	16	20	-15	18	-35
24	35	29	33	-5	31	-92
20	44	37	41	0	29	-52
15	44	39	39	0	16	67
15	40	38	33	3	2	60
25	37	38	31	11	-1	-28
40	36	38	34	20	6	5
55	37	35	42	25	16	94
68	43	37	52	28	25	38
78	57	48	58	31	29	-69
77	68	59	53	35	29	-61
65	69	63	37	37	24	6
45	57	52	15	41	14	7
23	31	28	-5	42	0	0
4	0	-6	-16	36	-18	23
-3	-27	-37	-15	26	-29	34
0	-37	-47	-7	22	-27	22
7	-33	-39	-2	23	-10	36
5	-27	-22	-10	23	14	48
-4	-21	-4	-27	23	38	16
-12	-13	13	-39	24	50	-45
-12	-1	27	-35	26	42	-49
-2	8	28	-16	26	18	3
15	13	18	10	25	-9	16
35	14	5	32	24	-25	-53
47	8	-6	36	21	-26	-77
47	0	-11	22	16	-10	-4
41	-2	0	7	15	14	53
39	12	27	9	21	37	23
40	37	56	31	30	44	5
39	56	68	60	33	31	19
36	60	56	82	25	8	15
30	49	30	85	11	-10	-1
20	23	-2	63	-5	-17	9
5	-7	-29	23	-21	-10	-18
-8	-31	-40	-15	-29	5	-73
-16	-41	-32	-35	-25	22	-65
-24	-41	-16	-36	-17	31	2
-32	-36	-5	-25	-18	24	8
-40	-30	-3	-12	-28	8	-43
-41	-27	-8	-5	-40	-2	-60
-39	-29	-18	-9	-50	0	-12
-35	-36	-29	-25	-52	10	38
-31	-48	-36	-43	-41	24	56
-30	-58	-36	-55	-20	36	42
-35	-62	-30	-56	0	42	42
-43	-59	-21	-51	7	37	68
-48	-50	-14	-42	4	26	104
-46	-39	-9	-35	-2	25	125
-37	-29	-9	-35	-2	41	155
-22	-23	-10	-37	11	70	176
-5	-15	-5	-32	37	103	199
12	-1	9	-11	63	132	240
31	24	36	25	75	147	265
56	60	72	71	69	147	196
86	98	107	113	54	134	105
112	121	126	134	36	112	94
118	115	116	121	17	84	109
95	79	75	79	0	47	43
49	25	17	25	-18	2	-33
-7	-28	-41	-22	-37	-44	-40
-55	-67	-84	-55	-54	-79	-2
-84	-88	-105	-75	-60	-97	35
-92	-95	-108	-89	-54	-95	72
-85	-96	-100	-100	-40	-80	59
-69	-91	-86	-105	-23	-58	26
-51	-83	-71	-103	-13	-44	60
-36	-72	-57	-93	-15	-44	123
-25	-58	-46	-75	-28	-49	83
-21	-43	-37	-58	-42	-48	3
-27	-37	-37	-53	-53	-40	-2
-43	-41	-46	-62	-58	-29	20
-61	-50	-56	-75	-56	-18	-14
-73	-56	-62	-82	-49	-17	-36
-77	-61	-65	-84	-46	-33	-38
-73	-62	-66	-80	-48	-61	-77
-62	-58	-65	-70	-50	-85	-109
-50	-51	-63	-58	-51	-99	-53
-40	-45	-62	-48	-51	-102	-10
-33	-37	-58	-37	-47	-95	-59
-24	-25	-47	-22	-38	-77	-109
-14	-14	-33	-7	-26	-56	-63
-9	-9	-22	0	-18	-41	-4
-8	-15	-22	-4	-16	-37	3
-9	-26	-28	-14	-15	-41	-2
-7	-35	-34	-23	-14	-42	35
0	-36	-35	-24	-9	-33	82
13	-26	-25	-15	0	-12	93
28	-5	-7	1	13	15	54
36	15	11	17	25	38	9
33	29	24	24	28	42	-23
26	38	31	22	24	22	-28
22	44	36	16	20	-9	-12
23	46	37	7	16	-33	19
28	41	33	-5	13	-36	17
33	28	21	-20	15	-21	-16
30	6	1	-34	20	1	-24
17	-20	-25	-45	21	16	9
-1	-41	-50	-49	18	13	-5
-12	-42	-57	-37	14	-4	-81
-6	-19	-38	-7	10	-25	-125
14	19	-1	26	4	-37	-61
40	55	37	47	-6	-34	23
59	73	64	48	-19	-18	38
66	68	69	33	-28	3	-1
56	47	54	11	-30	21	-13
37	24	32	-2	-23	27	8
23	15	21	2	-8	23	33
19	26	29	22	7	14	30
24	46	48	45	13	7	8
35	65	68	56	9	6	-20
48	75	83	54	4	16	-14
56	73	87	42	4	33	7
52	61	79	26	10	47	11
38	44	65	12	17	52	-10
18	29	54	3	21	51	-11
0	19	48	-1	16	45	16
-12	13	45	-2	3	40	57
-9	15	45	2	-8	41	73
6	23	48	15	-8	49	54
27	35	51	32	8	62	17
41	44	50	46	34	73	19
34	40	40	47	53	66	26
3	15	15	28	54	31	-23
-35	-21	-21	-5	39	-24	-101
-65	-59	-57	-40	20	-79	-108
-75	-86	-84	-61	7	-116	-57
-66	-96	-96	-64	8	-122	-20
-45	-87	-89	-48	24	-94	-18
-26	-65	-69	-22	43	-48	-29
-19	-43	-48	-2	52	-14	-63
-27	-33	-38	1	47	-10	-68
-39	-33	-37	-6	36	-28	-16
-45	-39	-43	-15	26	-51	33
-41	-45	-47	-18	24	-61	8
-29	-45	-44	-13	30	-48	-23
-16	-40	-33	-3	38	-15	-7
-10	-29	-19	2	37	19	16
-15	-20	-7	0	24	37	-8
-29	-16	-4	-7	4	33	-53
-42	-13	-7	-9	-10	16	-95
-41	-7	-10	2	-13	2	-84
-26	2	-10	21	-5	-4	-22
-3	11	-8	37	4	-5	16
19	16	-4	44	11	-3	-35
33	19	4	38	12	-4	-70
33	18	12	22	8	-10	-25
21	14	16	7	6	-19	-4
6	12	13	2	9	-26	-92
-4	13	5	6	17	-26	-148
-8	14	-7	11	26	-21	-88
-5	12	-21	10	35	-12	-17
3	7	-31	2	44	0	-25
13	-1	-34	-10	51	16	-29
17	-13	-33	-25	53	27	-15
10	-28	-32	-39	46	24	-53
-5	-41	-34	-46	30	4	-112
-25	-49	-37	-44	9	-20	-66
-40	-47	-36	-35	-10	-38	20
-43	-35	-27	-19	-21	-40	1
-31	-15	-9	-2	-24	-22	-98
-11	5	9	13	-25	6	-106
1	18	22	19	-37	27	-38
-1	19	25	14	-60	29	-28
-14	13	22	4	-82	20	-85
-22	12	25	2	-85	17	-76
-16	21	39	13	-62	31	14
3	37	57	33	-21	59	69
27	50	69	52	22	87	20
41	55	68	60	52	101	-40
40	50	54	53	56	92	-36
26	42	40	34	39	65	12
13	38	33	12	16	39	22
12	42	40	-1	2	27	0
26	53	55	2	1	31	-17
44	63	67	21	8	47	-26
57	66	67	46	12	61	-52
54	58	54	63	7	62	-57
33	39	29	63	-7	48	-33
1	13	2	42	-28	22	-37
-32	-13	-20	5	-44	-3	-92
-56	-31	-30	-30	-48	-18	-86
-62	-36	-26	-50	-39	-18	1
-49	-24	-11	-43	-23	-7	47
-23	0	10	-12	-9	10	-6
3	28	33	30	-4	28	-26
19	51	49	73	-12	39	36
19	61	56	100	-31	40	69
7	62	59	105	-48	40	27
-6	57	60	90	-56	50	22
-12	52	63	65	-51	72	68
-3	51	66	42	-34	100	105
17	51	68	29	-14	125	127
38	51	66	28	-1	134	159
49	50	59	42	-1	118	127
48	50	53	64	-11	80	35
35	51	48	83	-21	35	6
17	49	42	88	-26	1	63
0	38	29	76	-24	-19	54
-13	17	6	46	-15	-32	-25
-23	-14	-27	3	-8	-43	-39
-33	-52	-68	-43	-7	-56	24
-42	-83	-102	-77	-17	-74	26
-49	-97	-117	-90	-32	-92	-26
-52	-93	-111	-86	-48	-99	-56
-50	-77	-91	-72	-58	-96	-78
-46	-60	-71	-56	-59	-90	-122
-43	-53	-65	-46	-52	-89	-108
-47	-64	-78	-50	-41	-94	-51
-55	-82	-101	-59	-33	-104	-57
-57	-91	-114	-59	-27	-113	-118
-47	-77	-102	-43	-24	-116	-102
-33	-49	-71	-16	-26	-112	-46
-21	-19	-37	9	-31	-103	-57
-12	2	-12	31	-32	-90	-111
-4	11	0	42	-25	-72	-100
1	4	-2	36	-12	-53	-56
6	-8	-9	19	3	-38	-40
14	-15	-11	1	17	-27	-53
19	-14	-7	-13	23	-19	-63
17	-11	-4	-25	18	-11	-76
11	-7	-2	-32	12	0	-45
10	-1	0	-33	12	16	27
14	0	1	-34	19	35	62
19	-3	3	-36	30	50	19
25	-6	10	-32	41	60	14
32	-1	26	-19	50	72	99
39	15	48	0	54	89	169
47	39	71	22	57	112	135
53	59	85	34	61	127	78
49	57	75	24	62	116	39
28	24	34	-12	53	74	-19
-10	-34	-30	-63	31	13	-86
-57	-98	-98	-109	0	-49	-89
-93	-140	-144	-132	-28	-98	-93
-105	-145	-149	-127	-45	-118	-142
-88	-115	-118	-99	-45	-113	-136
-55	-71	-71	-65	-35	-100	-28
-19	-32	-33	-35	-19	-94	10
9	-8	-13	-11	-2	-90	-60
30	4	-7	7	13	-80	-91
40	12	-6	24	23	-62	-44
44	21	-2	37	25	-46	-57
44	29	9	39	21	-36	-108
43	33	22	28	11	-32	-101
42	29	27	8	1	-35	-72
46	22	25	-10	2	-37	-69
57	18	22	-19	21	-28	-16
68	21	21	-15	47	-5	40
72	30	24	0	67	17	-11
69	45	33	18	72	28	-106
61	60	46	33	61	25	-75
51	67	55	38	40	12	7
42	63	56	30	23	-2	-4
42	53	53	18	22	-6	-73
50	41	49	8	37	2	-78
57	27	40	1	53	13	-54
57	12	26	-1	59	15	-66
50	3	12	4	52	6	-94
41	4	4	14	37	-6	-72
34	11	4	23	21	-15	-22
36	27	17	32	15	-6	26
51	48	38	43	22	21	52
74	68	60	52	36	56	58
92	76	70	54	46	82	22
96	68	65	45	46	90	-16
86	50	47	30	38	79	3
62	26	25	15	24	56	77
33	6	6	4	10	35	108
11	-2	-3	1	5	24	70
2	0	-4	3	9	27	14
10	11	2	7	18	38	14
26	24	13	8	25	49	56
40	29	20	5	22	52	96
46	26	24	3	10	42	81
46	25	30	10	0	28	51
44	29	39	25	0	21	63
42	37	51	38	10	27	90
41	45	59	43	26	40	42
41	49	62	39	39	54	-24
37	44	56	30	40	62	-19
26	29	40	15	25	55	24
6	5	17	0	3	30	21
-17	-19	-5	-12	-14	0	6
-37	-41	-23	-23	-22	-24	-3
-48	-53	-33	-30	-22	-39	-32
-46	-54	-34	-30	-18	-42	-49
-36	-47	-29	-21	-17	-33	7
-25	-35	-23	-11	-23	-15	48
-22	-27	-20	-7	-35	4	9
-30	-24	-22	-13	-45	19	-32
-47	-28	-27	-28	-48	27	17
-67	-36	-32	-45	-46	25	64
-85	-46	-35	-58	-46	11	34
-95	-53	-35	-61	-51	-4	-18
-93	-57	-35	-54	-61	-9	-14
-81	-55	-34	-43	-71	-1	13
-65	-50	-36	-33	-77	12	33
-51	-40	-37	-26	-74	25	34
-43	-28	-34	-20	-64	30	9
-46	-16	-28	-17	-57	21	-52
-60	-13	-22	-19	-58	0	-73
-81	-21	-25	-27	-67	-22	-29
-100	-40	-39	-41	-80	-42	7
-109	-60	-58	-54	-87	-54	-21
-103	-71	-70	-59	-83	-56	-38
-87	-68	-69	-53	-65	-47	1
-68	-55	-55	-42	-42	-32	45
-55	-40	-35	-30	-20	-18	29
-48	-26	-17	-20	-3	-8	-12
-48	-19	-10	-13	5	-4	-38
-52	-21	-16	-14	6	-12	-31
-55	-27	-29	-18	3	-26	-24
-56	-34	-39	-24	1	-37	-46
-57	-40	-43	-35	1	-36	-84
-61	-47	-40	-48	1	-25	-68
-62	-47	-28	-52	4	-8	-4
-56	-34	-9	-39	7	11	39
-44	-10	11	-12	6	26	31
-30	15	25	18	0	32	20
-16	39	34	44	-9	31	5
-1	58	42	59	-15	31	-3
10	67	48	59	-14	33	26
12	62	48	47	-9	30	75
7	47	43	32	-2	22	46
-1	30	36	21	6	13	-35
-15	12	24	15	11	7	-42
-33	-6	3	7	9	7	28
-47	-21	-18	1	5	13	27
-47	-23	-29	0	5	20	-45
-37	-16	-29	1	10	16	-68
-29	-9	-27	2	11	-6	-24
-30	-8	-27	0	4	-44	-27
-45	-17	-35	-5	-12	-79	-72
-70	-35	-49	-16	-37	-98	-78
-92	-54	-63	-28	-59	-96	-47
-97	-62	-67	-34	-67	-79	-33
-79	-54	-57	-29	-56	-59	-11
-52	-37	-40	-16	-33	-51	6
-33	-22	-29	-5	-11	-59	-35
-32	-18	-29	0	2	-69	-113
-47	-23	-38	-2	6	-67	-113
-68	-34	-49	-11	3	-48	-57
-79	-44	-56	-23	-1	-23	-49
-71	-46	-51	-30	-2	-4	-92
-39	-34	-31	-24	3	0	-79
7	-8	0	0	14	-9	-12
58	26	33	33	29	-22	42
99	60	65	67	45	-25	37
121	84	85	88	59	-13	-1
122	92	93	90	65	7	-41
107	86	90	74	64	27	-39
87	71	82	47	58	38	-17
74	58	76	23	52	40	-9
78	55	77	13	52	36	-16
96	62	85	21	61	32	-7
115	69	88	32	73	33	9
117	64	78	38	77	38	38
96	46	54	33	69	42	62
61	24	26	21	50	47	35
27	7	8	8	29	54	-50
5	1	1	0	8	59	-73
-3	0	0	-6	-12	48	-18
-4	-5	-8	-15	-34	17	-4
-6	-22	-30	-31	-52	-19	-67
-13	-49	-62	-48	-65	-47	-75
-25	-76	-93	-59	-72	-57	-14
-35	-90	-106	-59	-70	-45	9
-38	-84	-95	-46	-56	-19	-25
-33	-63	-69	-25	-37	3	-21
-24	-38	-41	-6	-20	8	9
-9	-12	-16	6	-2	1	39
14	10	4	17	16	0	68
41	28	20	28	34	17	71
66	40	32	37	48	44	0
84	47	39	46	56	68	-64
93	50	44	54	59	76	-43
93	49	46	59	57	62	-1
86	46	45	58	50	36	-22
77	45	45	50	42	12	-43
69	47	48	38	33	8	-36
61	48	50	27	22	21	-29
51	45	45	17	8	34	-16
37	35	32	11	-10	32	41
25	22	17	8	-27	14	60
20	11	6	9	-37	-5	-1
21	5	3	9	-38	-17	-39
27	6	8	7	-30	-13	19
33	14	18	5	-20	8	48
41	29	30	11	-9	37	-15
50	44	41	23	-1	50	-57
59	55	48	38	2	41	13
68	60	52	47	3	20	63
78	61	55	47	7	0	2
88	64	61	45	19	-11	-69
101	77	75	51	38	-3	-18
120	103	98	73	62	24	93
149	141	132	113	92	65	161
186	183	171	162	123	110	178
222	220	207	202	148	155	203
245	242	231	217	156	196	206
247	246	239	206	146	221	172
225	230	228	176	117	220	140
186	196	198	139	76	190	137
136	148	150	102	30	139	93
86	93	92	65	-10	75	10
41	38	32	27	-41	11	-11
3	-8	-18	-12	-62	-38	56
-27	-41	-54	-49	-78	-71	82
-50	-59	-75	-73	-86	-88	28
-63	-64	-83	-79	-85	-92	-30
-68	-65	-85	-70	-75	-86	-26
-77	-73	-95	-61	-64	-83	-13
-98	-96	-118	-66	-60	-95	-25
-125	-125	-144	-83	-63	-118	-64
-146	-144	-158	-103	-67	-141	-88
-152	-146	-152	-114	-67	-157	-66
-142	-131	-131	-111	-60	-157	-13
-120	-107	-106	-95	-44	-141	-9
-97	-87	-90	-75	-24	-119	-38
-87	-82	-90	-63	-10	-101	-35
-91	-88	-101	-63	-7	-88	7
-98	-94	-106	-70	-10	-76	9
-99	-94	-98	-81	-13	-67	-27
-92	-87	-78	-89	-13	-62	-70
-81	-76	-55	-91	-11	-60	-93
-70	-66	-37	-83	-9	-58	-76
-66	-61	-35	-68	-10	-57	-11
-68	-62	-45	-49	-17	-57	16
-75	-65	-62	-29	-25	-53	-24
-81	-67	-75	-15	-30	-51	-66
-87	-69	-82	-12	-33	-57	-55
-91	-71	-83	-21	-35	-71	-54
-93	-75	-78	-36	-38	-83	-75
-94	-79	-73	-49	-46	-84	-72
-92	-82	-70	-52	-55	-70	-45
-84	-80	-69	-41	-58	-45	-29
-70	-73	-68	-23	-47	-17	10
-53	-62	-66	-9	-26	5	57
-35	-48	-60	-4	-2	20	45
-14	-30	-44	-6	17	30	-12
6	-11	-21	-12	28	38	9
20	3	1	-19	28	45	81
22	8	14	-22	18	45	83
12	4	15	-20	8	39	8
-7	-8	5	-18	1	29	-31
-29	-25	-11	-19	-2	19	-17
-40	-37	-23	-20	-4	16	9
-32	-35	-23	-17	0	22	22
-6	-18	-8	-11	9	35	24
26	11	20	-1	19	50	9
53	46	57	14	23	67	44
63	76	89	32	17	78	114
51	91	105	51	0	81	118
30	89	103	66	-17	75	54
15	76	86	76	-26	64	52
11	55	60	77	-17	48	101
16	33	34	67	4	32	90
20	14	16	48	30	18	22
12	-2	2	23	46	3	-9
-14	-23	-11	-2	46	-14	-36
-50	-45	-27	-25	34	-33	-65
-79	-65	-43	-44	25	-46	-33
-88	-79	-57	-56	23	-50	38
-79	-86	-66	-61	30	-45	26
-56	-82	-70	-56	41	-32	-31
-36	-74	-68	-44	47	-20	-21
-32	-70	-69	-35	40	-20	25
-49	-74	-74	-34	23	-28	4
-74	-80	-78	-41	4	-31	-30
-91	-79	-73	-54	-5	-21	-14
-89	-69	-59	-70	-4	3	47
-71	-55	-42	-83	5	32	104
-46	-44	-32	-91	16	50	115
-29	-41	-32	-93	25	44	40
-24	-45	-39	-86	28	19	-36
-30	-49	-44	-72	25	-11	-19
-37	-44	-42	-50	21	-32	28
-35	-29	-29	-28	22	-37	3
-21	-10	-12	-11	26	-27	-7
-3	4	-2	-6	30	-10	36
10	8	-2	-11	30	2	34
13	5	-10	-20	24	8	-16
5	0	-15	-24	10	9	18
-6	-2	-11	-19	-7	8	55
-12	4	4	-4	-21	9	-19
-8	17	25	12	-26	11	-65
3	32	44	21	-26	15	41
18	45	55	23	-23	21	91
34	58	59	23	-16	32	-20
47	70	60	26	-8	40	-72
54	81	63	35	-8	41	53
57	92	72	51	-15	40	131
58	99	80	67	-25	39	62
52	95	81	70	-37	35	9
41	81	73	57	-46	29	59
34	66	62	37	-44	26	87
33	53	50	21	-28	24	45
36	44	39	15	-6	13	5
41	40	30	18	11	-1	14
45	41	26	26	22	-8	5
46	41	22	29	27	-3	-30
38	34	16	19	23	5	-22
22	22	7	0	12	9	42
5	10	0	-18	-2	7	42
-2	4	-1	-22	-13	-2	-43
1	6	0	-10	-17	-21	-69
12	11	2	6	-19	-38	23
25	15	4	15	-16	-38	60
33	15	6	13	-9	-18	-14
30	7	4	-3	-4	5	-45
12	-8	-4	-28	-10	20	45
-12	-24	-14	-46	-26	24	97
-31	-30	-21	-45	-46	18	53
-37	-25	-20	-25	-64	9	9
-33	-13	-15	1	-79	5	11
-22	0	-4	27	-87	12	5
-8	10	9	42	-87	27	10
0	13	19	42	-80	40	30
0	7	21	26	-70	39	15
-8	-2	14	4	-58	24	-40
-19	-12	4	-15	-45	-1	-35
-29	-21	-9	-28	-31	-31	4
-37	-32	-26	-38	-22	-60	-13
-41	-42	-39	-46	-20	-81	-64
-35	-44	-40	-47	-20	-84	-48
-20	-37	-26	-39	-15	-70	2
0	-24	-3	-25	-6	-46	14
18	-8	19	-8	4	-19	-3
31	5	36	11	15	6	-9
38	17	43	29	20	24	-41
36	24	42	39	16	30	-58
24	27	37	35	1	23	0
7	26	34	21	-18	8	89
-5	24	35	6	-30	-4	88
-5	24	41	-4	-24	-5	54
5	25	45	-7	-4	4	93
23	26	43	-1	19	20	151
41	27	35	11	42	33	99
52	28	23	25	58	33	14
50	24	9	31	62	12	4
37	16	-2	30	59	-15	44
23	10	-5	28	56	-30	66
17	10	1	28	58	-21	94
18	14	12	29	57	6	103
27	21	25	33	50	43	67
44	35	40	41	40	75	54
63	51	53	49	29	85	97
74	61	60	50	16	64	70
73	62	57	44	4	27	-29
63	56	51	34	-4	-4	-65
47	46	41	26	-8	-21	-5
32	35	30	20	-7	-24	25
21	25	19	19	-3	-23	13
18	18	10	15	5	-26	23
20	10	3	5	17	-38	43
24	1	-2	-9	27	-57	31
30	-7	-7	-26	35	-72	38
39	-8	-5	-31	41	-67	62
53	4	7	-13	47	-36	49
68	28	28	23	54	9	-10
75	53	50	61	55	52	-12
66	62	59	82	47	79	48
41	45	47	75	29	83	84
8	8	17	46	7	65	49
-19	-35	-19	6	-10	32	33
-35	-69	-52	-25	-17	-1	66
-39	-82	-68	-36	-12	-24	78
-37	-73	-66	-25	-2	-31	19
-43	-59	-59	-7	3	-27	-40
-63	-56	-60	0	0	-21	-61
-88	-66	-70	-1	-10	-15	-32
-101	-78	-80	-8	-14	-10	50
-85	-75	-76	-11	-4	-2	156
-37	-44	-45	3	23	14	200
39	19	20	44	64	52	191
120	99	104	103	103	111	198
170	161	173	150	123	165	207
166	177	195	159	111	186	133
114	143	161	127	75	159	23
39	72	85	65	30	96	-20
-30	-8	-3	-4	-8	18	27
-71	-72	-76	-60	-31	-46	73
-77	-102	-112	-89	-38	-78	66
-62	-99	-111	-93	-37	-81	9
-46	-77	-88	-83	-35	-74	-33
-41	-50	-60	-67	-36	-75	-27
-44	-26	-36	-49	-31	-83	6
-49	-10	-22	-29	-16	-88	16
-53	-5	-20	-13	4	-84	17
-54	-12	-29	-8	21	-69	7
-53	-23	-42	-15	23	-53	-16
-51	-33	-52	-29	7	-53	-47
-50	-37	-57	-40	-22	-72	-64
-44	-28	-52	-37	-51	-96	-89
-29	-6	-34	-19	-62	-104	-109
-12	16	-12	0	-50	-94	-73
-4	24	-3	5	-28	-73	14
-8	14	-8	-7	-8	-49	47
-16	-3	-18	-27	5	-28	2
-21	-20	-25	-44	8	-20	-53
-21	-29	-26	-50	3	-23	-46
-15	-27	-21	-45	-4	-25	-7
-8	-22	-16	-39	-12	-21	16
-14	-25	-23	-46	-26	-17	0
-36	-44	-46	-66	-45	-20	-17
-61	-67	-72	-85	-63	-24	-1
-76	-80	-87	-90	-70	-24	36
-73	-78	-85	-77	-65	-22	17
-57	-63	-72	-51	-53	-23	-47
-34	-39	-56	-18	-39	-30	-85
-14	-14	-41	12	-32	-42	-50
-2	5	-32	35	-34	-57	-16
5	19	-24	49	-39	-69	-29
13	31	-10	60	-38	-65	-71
23	42	9	68	-28	-41	-84
30	47	25	70	-13	-8	-60
30	42	26	64	0	20	-25
25	31	14	56	12	37	-14
22	23	0	52	23	46	-7
27	22	-3	54	32	52	16
44	33	11	60	40	65	55
66	51	40	67	45	85	72
79	63	66	66	41	102	71
75	60	72	54	32	102	50
61	42	55	39	26	85	13
45	17	23	27	30	58	-7
36	-5	-8	24	42	30	37
37	-16	-25	29	55	12	72
47	-11	-19	40	62	11	28
60	6	5	52	57	26	-37
69	30	41	59	43	45	1
74	55	75	63	28	62	74
76	74	100	65	18	73	74
73	80	109	65	14	78	30
66	73	100	61	15	80	39
57	54	75	53	19	79	68
47	26	37	40	21	75	77
32	-4	-1	20	20	62	84
18	-28	-27	0	16	41	94
9	-31	-26	-12	14	19	58
7	-10	5	-11	10	4	27
6	23	51	0	1	0	49
7	56	92	13	-10	7	64
10	76	113	26	-22	21	-3
13	77	106	30	-29	32	-46
11	58	79	22	-31	36	24
0	29	46	1	-29	34	114
-15	2	21	-27	-22	30	87
-33	-16	5	-55	-16	31	17
-51	-29	-7	-77	-17	33	9
-61	-35	-18	-83	-22	31	35
-59	-34	-27	-71	-25	23	14
-49	-27	-28	-49	-22	8	-8
-41	-24	-27	-32	-18	-14	-3
-40	-28	-26	-32	-15	-43	-12
-43	-37	-27	-47	-13	-65	-45
-44	-45	-27	-64	-15	-70	-30
-42	-46	-26	-69	-23	-60	-3
-34	-34	-18	-54	-35	-41	-35
-22	-9	-2	-24	-45	-21	-98
-17	12	11	0	-52	-6	-72
-26	15	8	0	-59	-9	11
-43	-2	-12	-19	-62	-21	37
-55	-28	-38	-41	-58	-27	-17
-57	-46	-54	-49	-50	-21	-51
-52	-50	-56	-37	-42	-14	-30
-44	-40	-46	-15	-37	-13	-4
-38	-28	-36	-2	-32	-19	-35
-38	-28	-39	-14	-26	-37	-74
-37	-42	-55	-45	-13	-63	-73
-27	-54	-68	-72	8	-79	-43
-9	-56	-66	-79	32	-74	-39
1	-50	-53	-71	44	-62	-40
-2	-44	-38	-57	36	-53	-32
-18	-39	-28	-46	17	-44	-31
-35	-39	-27	-44	-1	-33	-28
-44	-44	-35	-51	-9	-24	28
-35	-41	-38	-50	-1	-13	74
-6	-22	-22	-28	23	8	36
29	9	11	6	52	39	-33
53	41	48	39	73	67	-8
58	60	73	56	79	82	54
46	62	76	54	74	84	41
22	45	56	34	63	67	-26
-5	14	23	1	49	36	-45
-26	-18	-10	-30	40	6	-19
-36	-41	-31	-48	39	-12	6
-38	-53	-40	-53	41	-22	12
-39	-56	-42	-49	37	-33	17
-39	-48	-38	-36	25	-46	3
-38	-29	-28	-14	5	-58	-7
-37	-7	-15	7	-15	-65	-6
-34	12	-4	21	-30	-61	-8
-24	27	5	28	-32	-39	-40
-6	38	15	36	-20	-8	-59
13	45	24	42	-5	15	-21
30	50	34	48	3	25	42
41	59	52	57	2	29	33
48	74	77	67	0	37	-26
50	86	99	70	1	52	-56
48	85	105	59	9	68	-32
42	68	88	40	17	80	-15
31	39	54	21	19	80	-10
19	9	18	9	7	65	-13
7	-10	-7	7	-14	40	-40
-1	-14	-13	15	-37	11	-65
-7	-5	-2	24	-53	-11	-17
-12	5	12	21	-53	-26	41
-17	9	19	7	-40	-30	19
-23	3	14	-10	-18	-19	-25
-27	-9	2	-22	5	10	33
-29	-23	-14	-28	23	47	110
-30	-38	-31	-30	30	71	88
-29	-48	-44	-31	29	74	29
-25	-50	-45	-36	26	58	42
-20	-44	-36	-43	26	37	86
-17	-35	-22	-48	30	22	109
-19	-29	-11	-48	33	19	115
-25	-30	-10	-43	30	25	107
-29	-36	-19	-35	19	34	62
-25	-39	-34	-22	3	34	38
-9	-34	-43	-4	-13	20	42
14	-15	-38	18	-28	-5	14
35	13	-17	40	-40	-31	-50
48	44	12	59	-47	-46	-63
52	67	44	71	-48	-49	-25
53	80	70	76	-39	-40	-2
60	84	86	76	-21	-26	-21
73	83	89	74	0	-15	-41
86	77	79	73	11	-19	-68
91	68	61	73	7	-35	-72
83	60	43	74	-10	-45	-23
67	55	35	77	-30	-36	46
52	55	40	79	-40	-7	32
43	55	52	74	-30	26	-29
37	48	57	58	-7	47	-18
29	27	45	31	16	47	65
13	-3	12	-4	26	25	79
-9	-40	-30	-41	21	-7	33
-33	-69	-69	-71	8	-30	40
-47	-82	-87	-87	0	-27	99
-51	-80	-84	-94	0	-7	86
-53	-79	-78	-101	8	9	21
-59	-88	-82	-109	18	9	-24
-67	-103	-96	-113	22	-9	-64
-76	-119	-116	-111	18	-43	-115
-83	-131	-133	-106	7	-87	-115
-81	-129	-137	-95	-2	-123	-103
-64	-111	-123	-78	-8	-142	-152
-41	-83	-98	-62	-10	-147	-218
-23	-60	-76	-51	-13	-147	-189
-16	-45	-61	-44	-23	-145	-117
-16	-31	-49	-35	-38	-137	-75
-13	-11	-27	-18	-51	-117	-45
1	22	8	11	-56	-74	24
37	72	62	56	-44	-7	113
88	130	121	113	-18	74	189
137	174	165	163	11	145	198
159	185	172	187	32	180	127
143	156	137	172	34	165	22
95	98	76	125	18	107	-37
33	34	14	62	-7	29	-70
-24	-17	-30	3	-36	-42	-107
-66	-51	-52	-41	-59	-91	-148
-87	-67	-60	-65	-72	-117	-169
-88	-74	-65	-72	-72	-127	-163
-79	-78	-75	-73	-63	-131	-117
-67	-78	-84	-71	-50	-132	-88
-53	-70	-80	-62	-34	-125	-122
-39	-51	-58	-46	-20	-105	-169
-35	-33	-29	-31	-13	-73	-121
-47	-30	-13	-30	-17	-40	-41
-71	-51	-25	-48	-28	-17	-34
-97	-85	-60	-76	-36	-5	-68
-111	-113	-92	-100	-35	0	-50
-107	-120	-101	-107	-24	5	-20
-89	-102	-81	-92	-9	8	-29
-68	-70	-44	-66	3	11	-63
-53	-40	-10	-38	6	15	-91
-48	-26	1	-22	0	15	-134
-50	-33	-11	-24	-7	8	-148
-50	-49	-37	-37	-12	-6	-110
-44	-60	-57	-49	-12	-22	-69
-34	-61	-63	-53	-8	-33	-92
-25	-54	-57	-48	-5	-34	-131
-21	-42	-44	-35	-5	-21	-115
-20	-26	-27	-13	-9	5	-57
-20	-10	-10	8	-18	35	-41
-22	4	5	19	-28	55	-55
-21	15	22	18	-35	61	-33
-12	26	40	12	-33	61	34
1	30	50	1	-20	63	63
14	21	43	-14	0	69	43
22	3	20	-32	22	76	10
27	-12	-4	-42	43	84	-19
29	-16	-20	-41	57	89	-23
30	-5	-18	-29	64	90	37
34	20	0	-5	65	88	81
47	53	27	26	63	84	31
62	77	45	54	60	73	-44
73	79	39	62	54	50	-29
73	58	12	47	47	21	6
66	26	-20	21	43	2	-2
59	0	-44	-1	44	3	-8
57	-9	-44	-8	50	25	14
63	5	-19	2	57	52	11
71	33	15	24	59	66	4
69	56	41	42	49	56	1
54	62	48	47	29	25	-30
33	55	41	42	10	-5	-72
17	39	29	33	0	-18	-34
11	23	18	24	1	-10	33
15	13	15	16	14	9	34
27	14	22	12	32	30	-19
36	24	36	13	48	44	-43
36	34	49	16	54	52	-33
27	44	60	21	54	58	-3
15	52	70	30	53	63	13
3	55	74	37	53	58	-6
-7	48	67	34	49	40	-37
-14	34	52	23	41	15	-17
-12	22	36	14	33	-1	13
-3	16	22	12	23	-1	-1
9	15	15	19	16	15	-39
23	24	19	35	14	38	-47
37	40	34	55	20	54	-34
42	55	50	68	24	47	8
35	60	56	67	21	18	49
23	57	53	56	15	-10	30
16	49	43	43	12	-21	-40
14	37	29	30	13	-11	-34
11	20	10	16	14	4	32
7	5	-4	5	13	11	39
1	-1	-11	-1	10	3	-8
-8	0	-9	-4	3	-17	8
-16	5	0	-3	-1	-36	47
-16	14	13	1	1	-39	26
-5	21	27	8	15	-23	-11
9	22	33	12	34	4	-3
23	16	30	11	49	28	-23
30	8	21	7	51	38	-48
27	-1	8	0	37	34	-6
14	-11	-6	-11	10	23	35
1	-16	-13	-17	-19	12	-38
-4	-12	-9	-12	-41	1	-100
-2	0	1	2	-50	-10	-24
5	13	14	22	-44	-21	64
18	24	22	38	-31	-26	21
24	23	19	39	-24	-30	-51
18	7	0	18	-30	-35	-77
4	-14	-22	-9	-45	-40	-94
-9	-24	-35	-26	-61	-40	-114
-16	-19	-32	-21	-72	-39	-89
-16	-2	-18	3	-76	-37	-69
-6	19	1	38	-69	-30	-79
9	37	19	67	-52	-17	-60
22	41	28	76	-36	-5	-7
30	35	28	69	-22	0	-3
37	30	30	60	-10	0	-36
49	37	40	62	0	3	-63
66	54	56	74	5	7	-65
82	70	69	88	5	5	-49
90	75	70	92	0	-4	-22
85	67	59	83	-5	-16	-44
70	50	45	62	-9	-23	-86
52	34	37	39	-9	-20	-65
38	27	41	23	-5	-7	-4
34	34	58	22	-1	15	-9
42	50	79	35	0	37	-45
53	69	92	55	0	48	-38
61	80	92	75	-1	50	3
60	80	80	83	-2	49	20
46	65	57	73	-4	49	13
20	37	32	46	-8	46	-35
-9	8	10	11	-14	39	-87
-33	-13	-1	-13	-17	29	-67
-41	-17	-2	-18	-15	18	9
-31	-5	7	0	-7	13	28
-12	13	20	23	4	14	1
0	23	26	37	8	17	-17
-4	17	20	31	-1	18	-20
-25	-1	5	8	-21	10	-28
-52	-24	-12	-18	-42	-7	-21
-73	-39	-25	-35	-56	-32	-37
-75	-38	-25	-35	-56	-51	-91
-58	-25	-16	-24	-41	-58	-104
-36	-16	-9	-17	-20	-57	-38
-23	-20	-13	-23	-5	-51	-6
-23	-32	-24	-34	0	-41	-46
-28	-39	-30	-43	2	-30	-63
-30	-36	-25	-45	5	-23	7
-28	-22	-9	-41	6	-18	60
-19	-4	8	-30	6	-11	32
-6	7	17	-19	7	-5	-11
4	7	12	-10	10	-2	14
12	0	-3	-3	16	0	52
19	-8	-16	3	29	6	40
27	-9	-21	7	50	15	10
30	-8	-19	0	68	22	9
23	-12	-17	-18	73	22	-25
8	-21	-19	-38	64	14	-72
-7	-30	-22	-50	47	-3	-39
-22	-35	-24	-51	27	-25	52
-29	-28	-18	-38	12	-39	56
-20	-7	0	-13	12	-34	4
-1	17	23	11	24	-17	32
13	27	35	20	35	-1	95
12	13	25	10	34	2	42
0	-14	0	-10	23	-4	-68
-17	-40	-24	-30	8	-18	-95
-32	-55	-39	-45	-7	-33	-34
-37	-53	-39	-49	-16	-41	18
-28	-38	-26	-39	-10	-38	39
-12	-23	-12	-25	6	-31	36
-4	-21	-12	-20	23	-25	23
-9	-37	-28	-26	33	-23	26
-21	-55	-49	-37	36	-22	61
-30	-64	-61	-44	34	-21	84
-34	-60	-60	-48	30	-19	86
-34	-50	-51	-47	23	-13	83
-32	-39	-40	-46	19	0	103
-34	-39	-38	-54	16	14	117
-44	-54	-49	-74	9	26	104
-59	-78	-69	-101	-3	31	55
-70	-96	-85	-121	-18	31	1
-73	-101	-89	-124	-31	27	-23
-74	-99	-86	-116	-44	20	-2
-82	-99	-85	-106	-56	9	15
-95	-106	-91	-103	-66	-5	0
-105	-116	-100	-106	-68	-23	-38
-104	-122	-107	-112	-61	-40	-36
-92	-119	-107	-116	-48	-51	-5
-76	-108	-102	-114	-34	-57	-15
-62	-95	-95	-108	-24	-62	-94
-58	-85	-92	-98	-17	-69	-136
-61	-81	-94	-87	-13	-77	-77
-61	-74	-92	-70	-10	-83	18
-43	-51	-73	-41	-1	-74	65
-5	-8	-30	0	14	-39	109
43	48	30	47	33	20	170
88	105	93	89	48	94	237
117	146	139	114	54	163	294
121	159	154	117	49	210	327
102	145	137	101	34	222	272
72	114	100	75	12	200	157
43	76	57	45	-11	149	84
18	40	17	14	-33	80	66
-2	9	-14	-14	-53	9	16
-18	-14	-36	-37	-69	-52	-42
-32	-29	-50	-55	-81	-102	-47
-44	-34	-55	-61	-90	-135	-6
-47	-25	-47	-48	-95	-149	13
-37	-3	-29	-20	-95	-146	-6
-18	21	-5	9	-91	-131	-56
0	38	12	29	-85	-109	-86
12	44	21	37	-76	-87	-52
19	40	19	34	-65	-70	10
21	30	8	26	-50	-61	15
22	21	-5	23	-33	-57	-5
26	20	-13	33	-17	-47	-9
35	29	-8	55	-3	-28	-8
39	38	3	75	5	-9	-5
30	36	11	80	0	0	42
8	22	11	64	-14	-4	67
-15	1	3	34	-31	-18	12
-33	-20	-11	1	-41	-32	-21
-41	-35	-28	-18	-45	-34	55
-38	-37	-37	-14	-44	-19	101
-27	-25	-33	11	-41	4	25
-19	-11	-22	41	-42	24	-45
-21	-7	-15	52	-50	32	4
-31	-17	-16	33	-60	28	41
-40	-35	-27	-7	-64	17	-24
-45	-55	-43	-51	-56	1	-87
-43	-64	-55	-75	-39	-16	-51
-38	-58	-54	-68	-19	-34	1
-34	-41	-45	-36	-3	-53	1
-39	-25	-36	-1	1	-70	-27
-47	-18	-37	20	0	-79	-44
-51	-21	-46	19	-2	-75	-77
-45	-31	-62	-1	2	-65	-98
-34	-46	-79	-32	11	-62	-73
-26	-60	-89	-57	21	-67	-33
-28	-69	-90	-68	25	-78	-57
-37	-72	-83	-59	23	-87	-123
-45	-65	-70	-36	19	-87	-144
-42	-50	-55	-7	17	-73	-88
-25	-34	-44	14	19	-48	-45
0	-23	-39	21	26	-21	-61
21	-18	-38	13	35	0	-84
32	-20	-38	-3	39	10	-41
27	-23	-35	-20	37	12	7
13	-23	-25	-27	30	10	-12
2	-12	-5	-17	23	11	-63
2	10	24	10	17	23	-53
18	43	61	52	15	46	3
47	79	98	95	19	79	43
81	107	125	125	30	113	40
108	118	135	132	43	134	19
119	110	128	117	57	136	-4
113	89	111	87	68	126	11
94	69	95	58	74	112	50
73	61	91	46	72	98	61
60	70	101	57	69	86	15
61	90	118	82	66	76	-21
70	107	133	101	65	65	-13
82	111	136	103	66	54	19
86	100	127	85	68	49	47
81	78	110	55	66	54	71
70	59	96	29	60	70	44
61	54	94	20	50	87	-9
56	61	101	28	42	95	-15
57	73	108	42	37	90	18
61	80	109	49	36	77	-18
64	78	100	46	41	59	-83
58	60	77	35	46	32	-47
42	31	41	18	46	-2	45
20	3	5	6	35	-35	9
-1	-16	-21	0	18	-60	-98
-19	-26	-34	-5	1	-67	-106
-33	-29	-32	-18	-11	-48	-29
-43	-29	-21	-39	-18	-8	-14
-54	-35	-11	-62	-17	26	-28
-67	-48	-14	-83	-12	37	-16
-75	-64	-28	-93	-5	20	-33
-75	-75	-46	-88	4	-9	-86
-66	-79	-63	-76	16	-37	-79
-56	-80	-78	-68	30	-50	-51
-49	-80	-84	-70	42	-44	-89
-44	-78	-80	-77	50	-23	-136
-42	-73	-66	-81	54	-2	-82
-38	-63	-48	-79	51	8	0
-29	-50	-31	-66	44	7	23
-16	-36	-19	-46	36	0	12
-4	-22	-15	-24	28	-6	19
5	-11	-13	-6	22	-3	35
11	0	-7	5	18	10	64
16	13	7	12	15	32	81
21	27	28	17	14	55	68
29	40	51	22	19	69	41
39	50	70	25	28	68	54
52	57	82	29	40	53	84
70	68	88	41	51	35	83
91	86	95	61	60	26	37
111	109	106	87	61	32	-5
121	130	119	110	55	48	-6
117	140	128	123	44	67	18
98	134	128	119	32	77	-5
70	112	117	97	20	69	-65
42	83	95	65	12	40	-87
28	59	71	37	10	0	-36
30	49	52	24	12	-31	10
39	48	39	24	14	-48	11
43	48	30	31	9	-48	-9
36	46	25	37	-1	-34	-11
21	40	22	38	-18	-15	7
0	28	16	28	-38	-2	48
-22	12	5	11	-55	-2	82
-34	0	-7	-3	-61	-10	74
-37	-9	-19	-12	-57	-19	18
-37	-18	-31	-18	-48	-22	-12
-41	-29	-40	-27	-42	-14	20
-48	-38	-45	-36	-41	3	74
-56	-44	-48	-44	-45	24	68
-66	-52	-53	-53	-50	37	30
-77	-65	-66	-61	-51	35	41
-89	-86	-89	-69	-45	15	89
-102	-112	-118	-79	-35	-12	67
-113	-140	-147	-91	-26	-36	-15
-121	-158	-162	-101	-21	-45	-61
-121	-158	-156	-103	-22	-40	-27
-113	-141	-134	-95	-24	-30	10
-101	-115	-104	-81	-26	-26	10
-87	-89	-79	-66	-27	-30	-6
-71	-68	-64	-49	-23	-37	-2
-52	-57	-62	-35	-15	-38	14
-30	-53	-66	-23	-8	-30	19
-7	-50	-67	-14	-5	-15	-13
14	-39	-57	-1	-4	-1	-55
32	-18	-35	16	-8	4	-83
44	12	-3	38	-15	3	-69
51	47	29	61	-23	2	-32
52	74	53	79	-31	3	7
48	83	60	85	-35	5	17
45	78	54	76	-34	4	9
46	67	45	61	-27	3	23
50	58	43	48	-19	6	73
53	59	51	43	-16	16	105
58	74	69	50	-16	36	84
65	94	90	65	-16	61	34
70	106	101	75	-15	79	28
67	95	87	67	-13	74	62
53	62	50	41	-11	42	66
31	18	2	7	-9	-1	1
7	-19	-35	-20	-11	-35	-44
-11	-37	-49	-33	-13	-44	8
-17	-32	-36	-31	-12	-26	92
-10	-10	-5	-19	-8	8	87
3	12	24	-6	-2	41	36
19	23	38	-3	1	57	22
30	22	33	-9	2	49	35
38	16	21	-14	0	21	9
42	13	13	-12	-9	-12	-20
41	15	13	-6	-21	-39	-13
31	16	15	0	-32	-56	7
16	11	15	6	-38	-63	22
2	1	8	11	-34	-59	57
-4	-12	-4	11	-23	-48	76
-1	-22	-17	7	-13	-38	27
10	-23	-22	4	-13	-37	-65
22	-14	-18	3	-29	-41	-88
19	-4	-11	-1	-58	-47	-29
-6	-6	-10	-14	-89	-52	32
-47	-20	-17	-33	-108	-51	32
-81	-39	-25	-49	-103	-38	29
-91	-48	-26	-56	-77	-12	85
-70	-36	-13	-45	-40	20	167
-19	1	16	-9	-3	53	184
46	58	59	48	28	86	150
102	115	101	112	50	117	123
127	149	127	155	60	130	121
115	146	124	160	58	114	88
75	108	94	126	46	68	16
26	53	50	67	27	3	-56
-14	-1	5	5	8	-64	-77
-39	-39	-29	-40	-7	-117	-55
-49	-60	-54	-62	-18	-141	-20
-53	-71	-76	-70	-27	-139	-2
-65	-85	-102	-79	-39	-125	-5
-82	-105	-128	-98	-50	-110	-46
-96	-124	-143	-121	-52	-94	-61
-101	-133	-139	-138	-45	-72	4
-97	-130	-121	-145	-31	-43	81
-89	-118	-97	-141	-20	-14	50
-83	-104	-78	-126	-16	6	-6
-84	-94	-74	-110	-25	5	43
-92	-90	-84	-98	-42	-18	116
-95	-85	-93	-86	-56	-49	59
-85	-70	-87	-67	-57	-71	-32
-65	-47	-65	-45	-48	-74	-38
-44	-25	-37	-32	-35	-66	-25
-33	-13	-15	-31	-25	-60	-65
-35	-14	-7	-39	-24	-66	-61
-49	-26	-13	-51	-29	-83	-10
-66	-40	-27	-57	-31	-99	-7
-70	-42	-37	-44	-21	-95	-32
-57	-31	-39	-12	1	-66	11
-28	-15	-36	22	27	-24	47
4	-4	-33	42	49	5	-7
33	0	-29	43	59	12	-85
51	2	-18	30	57	-1	-75
54	11	3	15	45	-25	-25
42	23	27	6	29	-47	-7
23	36	44	8	13	-58	-21
9	45	50	19	4	-54	-11
11	48	45	31	7	-35	35
26	42	31	35	18	-9	80
47	31	15	27	33	18	72
67	27	11	19	48	51	26
79	34	22	22	58	82	-24
77	46	38	34	54	99	-30
63	53	47	49	38	96	18
52	55	47	64	21	83	86
54	55	46	75	11	72	93
70	56	47	79	12	70	53
91	59	54	78	19	75	52
104	65	65	77	23	78	76
94	65	71	74	16	63	19
54	52	60	63	-3	26	-74
-6	20	26	39	-28	-18	-90
-71	-22	-19	3	-43	-48	-28
-119	-65	-65	-37	-37	-53	14
-141	-101	-101	-74	-14	-35	23
-140	-123	-122	-98	15	-7	15
-125	-129	-127	-104	38	9	4
-108	-120	-119	-93	46	1	9
-95	-100	-102	-71	41	-22	34
-82	-75	-80	-43	33	-44	26
-63	-50	-56	-17	29	-53	-22
-39	-32	-37	-2	32	-52	-91
-11	-22	-24	0	36	-48	-147
13	-16	-15	-5	36	-47	-166
30	-9	-10	-11	28	-54	-140
33	-4	-8	-13	15	-69	-128
29	0	-6	-9	5	-78	-133
25	2	0	1	9	-67	-77
23	4	9	11	26	-37	24
21	2	20	12	43	2	27
20	3	36	7	51	43	-49
23	18	59	6	47	81	-71
34	48	88	19	37	111	-17
50	82	113	43	27	128	6
67	107	125	67	24	129	-4
79	116	121	83	31	116	-16
82	110	106	84	43	96	-42
73	93	85	71	50	70	-71
51	72	67	50	44	49	-45
25	56	57	34	31	40	-3
3	50	58	34	18	42	-14
-11	48	60	42	9	47	-57
-20	41	53	46	4	44	-52
-22	27	34	41	3	26	-23
-14	13	10	27	7	1	-35
0	6	-5	10	12	-15	-93
20	11	-4	0	19	-6	-117
42	30	16	8	25	27	-70
61	55	50	32	29	69	1
74	75	78	58	28	96	13
79	81	87	75	23	95	-29
83	73	76	74	17	68	-85
88	57	51	57	13	31	-106
91	41	27	31	13	6	-86
88	30	14	12	14	7	-42
78	27	15	7	12	25	-28
62	29	26	12	4	46	-34
43	35	41	21	-4	61	-2
30	41	55	29	-9	74	48
25	44	62	31	-9	86	12
24	38	55	22	-7	89	-73
17	19	32	6	-6	77	-101
0	-9	-2	-11	-10	52	-66
-26	-39	-37	-27	-19	19	-57
-54	-62	-61	-41	-30	-6	-54
-76	-70	-66	-52	-33	-11	-40
-80	-63	-51	-54	-25	11	-55
-68	-45	-26	-47	-7	44	-79
-50	-32	-10	-40	8	58	-27
-38	-31	-11	-37	13	42	42
-33	-37	-24	-33	7	9	32
-31	-40	-33	-24	-2	-13	-21
-26	-31	-27	-11	-9	-8	-26
-18	-14	-8	3	-10	20	-26
-10	0	9	13	-9	50	-51
-7	5	16	13	-11	57	-72
-7	0	9	1	-16	36	-73
-7	-10	-4	-15	-21	0	-54
-3	-17	-14	-24	-22	-31	7
8	-10	-10	-19	-15	-34	32
23	7	8	-2	0	-9	-40
31	25	27	14	11	17	-116
26	30	33	21	10	23	-69
11	22	25	16	0	9	7
-3	8	11	3	-15	-10	1
-15	-5	-4	-9	-30	-25	-23
-18	-11	-10	-14	-38	-25	25
-9	-3	0	-6	-33	-1	85
4	12	19	6	-20	34	97
13	22	34	14	-10	54	65
14	21	34	14	-9	46	24
13	13	23	11	-12	18	-23
11	5	9	5	-13	-13	-49
6	-3	-5	-3	-8	-43	-46
-3	-8	-15	-13	3	-63	-20
-14	-10	-17	-23	17	-70	-20
-27	-15	-18	-32	24	-67	-67
-41	-26	-26	-40	18	-66	-93
-49	-41	-40	-42	4	-69	-20
-46	-48	-49	-37	-6	-67	63
-32	-45	-48	-27	-7	-56	49
-14	-36	-40	-20	0	-43	-13
-2	-29	-31	-18	9	-37	-2
1	-28	-28	-23	14	-39	25
-2	-35	-34	-30	11	-45	-14
-11	-45	-46	-32	7	-54	-75
-21	-53	-57	-29	7	-60	-71
-28	-53	-60	-22	15	-55	-17
-36	-50	-53	-19	23	-39	33
-44	-49	-45	-23	23	-24	39
-52	-52	-42	-35	16	-14	17
-51	-58	-44	-49	6	-10	-10
-40	-59	-47	-57	1	-7	-17
-23	-53	-46	-55	1	-6	-18
-10	-42	-42	-44	2	-10	1
-7	-29	-37	-30	0	-18	21
-10	-14	-29	-16	-1	-29	8
-12	-1	-18	-5	1	-42	-2
-11	2	-13	-4	9	-54	48
-11	-10	-23	-19	18	-65	62
-16	-39	-47	-47	21	-73	-36
-29	-73	-77	-78	16	-78	-121
-51	-104	-107	-106	0	-86	-63
-73	-120	-125	-118	-20	-95	1
-78	-110	-118	-103	-32	-101	-36
-59	-74	-85	-63	-33	-99	-66
-24	-31	-42	-15	-27	-88	-35
9	1	-6	25	-21	-67	-38
32	16	11	47	-16	-39	-42
37	11	9	44	-12	-9	19
27	-7	-7	20	-13	14	41
14	-23	-23	-6	-15	27	-50
13	-19	-17	-17	-18	28	-86
25	7	10	-9	-24	18	-20
41	45	49	14	-32	3	-6
56	81	83	48	-35	-4	-62
69	107	105	81	-24	7	-18
81	119	113	105	0	42	128
98	126	117	122	31	96	220
124	138	131	139	68	155	203
154	156	154	155	97	200	160
168	170	172	160	107	208	122
156	167	170	149	96	173	82
119	142	140	124	72	107	31
64	97	86	87	42	31	-1
6	42	22	43	13	-33	-17
-37	-7	-30	1	-6	-74	-47
-56	-41	-60	-28	-11	-86	-71
-55	-60	-73	-49	-8	-82	-6
-50	-71	-78	-66	-8	-78	100
-47	-75	-78	-76	-15	-80	109
-48	-72	-72	-74	-25	-84	23
-56	-65	-63	-64	-39	-85	-2
-68	-59	-54	-52	-54	-83	21
-80	-53	-45	-43	-64	-75	-10
-82	-46	-38	-35	-65	-62	-67
-72	-35	-31	-26	-60	-47	-52
-52	-19	-19	-14	-48	-31	6
-30	0	0	0	-33	-14	50
-15	14	19	13	-20	1	69
-9	17	32	21	-11	14	62
-9	12	35	22	-6	25	31
-10	8	33	19	-5	34	45
-9	10	32	20	-13	39	91
-8	20	34	26	-26	36	84
-10	37	40	37	-41	25	8
-16	51	47	49	-53	7	-38
-26	55	47	54	-63	-15	-16
-33	47	37	50	-66	-33	22
-29	33	21	38	-59	-35	19
-18	17	4	24	-50	-24	-13
-11	0	-14	10	-46	-16	-52
-10	-15	-32	0	-47	-24	-60
-10	-20	-41	0	-47	-48	-49
-7	-13	-39	12	-44	-77	-33
-1	2	-28	27	-39	-100	-21
11	21	-11	38	-27	-100	-7
33	38	7	42	-4	-70	18
53	42	16	33	17	-22	71
63	30	12	12	27	19	120
68	14	4	-8	25	46	114
72	11	5	-13	16	59	52
74	22	19	0	0	59	38
64	37	33	21	-17	49	80
44	44	35	35	-30	38	74
19	33	19	32	-33	31	-17
-6	5	-14	9	-30	27	-65
-26	-27	-49	-24	-28	28	-7
-31	-47	-62	-48	-26	37	55
-20	-38	-42	-47	-22	52	50
-1	-7	2	-24	-18	64	51
15	32	52	8	-15	67	77
24	62	85	38	-12	63	84
22	66	84	49	-8	57	72
5	39	49	32	-5	54	87
-19	-5	-1	-2	-4	55	66
-38	-40	-37	-34	-2	59	-12
-42	-47	-38	-47	1	52	-48
-32	-24	-6	-39	4	30	-7
-11	13	41	-18	2	-2	-17
11	45	81	4	-1	-28	-81
22	49	87	11	-5	-36	-77
10	16	53	-10	-7	-24	8
-19	-36	-3	-50	-6	-4	48
-49	-81	-52	-87	0	10	46
-66	-96	-68	-102	7	15	51
-59	-77	-50	-90	15	16	26
-32	-35	-10	-57	25	21	-25
1	6	23	-17	36	33	7
21	24	27	9	42	42	83
16	7	-5	10	39	40	68
-9	-32	-61	-8	28	25	-6
-39	-76	-112	-35	15	5	13
-60	-107	-140	-57	6	-7	70
-67	-117	-141	-72	4	-5	37
-62	-107	-121	-75	9	4	-37
-51	-81	-89	-63	19	7	-38
-38	-47	-56	-39	27	-2	13
-24	-14	-29	-10	29	-14	58
-6	9	-9	17	29	-18	83
14	21	3	36	31	-7	78
29	18	10	40	34	14	38
28	5	10	27	35	39	32
6	-10	4	7	30	56	56
-27	-21	-2	-8	23	57	44
-58	-22	-8	-13	18	47	-7
-73	-18	-16	-11	19	35	-34
-69	-19	-30	-11	25	26	-43
-56	-32	-51	-21	28	13	-49
-45	-53	-73	-42	24	-7	-30
-45	-73	-89	-61	10	-33	-1
-51	-81	-89	-69	-5	-56	-30
-56	-72	-72	-60	-13	-69	-45
-53	-50	-48	-41	-11	-72	27
-42	-29	-28	-25	0	-66	87
-24	-14	-16	-21	12	-50	24
0	-1	-4	-23	24	-26	-37
28	20	17	-20	32	1	30
56	51	51	-4	34	28	111
78	82	88	20	30	46	65
91	101	116	42	22	51	-9
92	99	123	50	11	41	-7
84	77	106	42	0	23	20
75	48	78	25	-7	12	14
74	30	55	12	-6	16	27
74	25	45	8	-2	30	55
65	28	44	11	0	41	45
45	27	43	10	-1	40	31
16	18	37	1	-5	25	71
-9	1	23	-10	-7	4	96
-21	-14	6	-16	-3	-9	57
-13	-20	-4	-14	8	-11	18
8	-14	-6	-6	23	-5	46
28	-5	-3	0	32	0	69
29	-2	-2	-7	30	-1	51
9	-12	-9	-29	17	-14	21
-19	-27	-21	-55	2	-29	4
-40	-40	-35	-69	-5	-40	6
-46	-45	-47	-64	-4	-46	52
-37	-45	-57	-44	2	-51	99
-18	-40	-61	-20	12	-53	90
2	-32	-55	2	20	-49	36
17	-19	-36	15	20	-42	20
25	-1	-8	22	14	-36	49
32	24	27	30	6	-30	75
42	56	64	47	4	-22	54
54	85	92	69	10	-13	19
67	100	102	87	22	-2	41
79	98	94	93	40	15	113
88	82	75	89	58	39	122
91	61	53	77	68	56	61
86	44	40	65	66	58	33
78	41	40	58	57	48	77
72	51	53	58	45	31	102
67	64	66	61	33	15	87
65	69	69	59	23	3	69
66	63	58	53	16	0	43
70	54	43	48	15	0	8
70	47	30	47	12	-1	9
63	49	30	51	7	-10	21
51	61	45	58	3	-25	2
40	74	64	65	2	-40	-21
32	77	73	65	0	-49	12
28	62	64	54	0	-49	54
27	36	39	35	1	-40	50
26	13	15	16	3	-25	4
25	6	5	7	4	-8	-34
22	18	17	12	7	1	-38
20	39	39	25	11	-2	-13
17	50	53	35	13	-19	-8
14	42	47	35	12	-37	-24
10	19	26	24	11	-42	-23
9	-3	3	9	12	-22	29
9	-16	-9	-1	16	20	92
8	-14	-6	-3	21	70	133
2	-4	5	1	24	106	123
-10	2	14	4	22	110	61
-28	0	10	1	14	77	3
-47	-12	-6	-5	2	24	23
-58	-24	-24	-11	-9	-17	66
-56	-29	-35	-10	-15	-31	42
-43	-27	-37	-3	-18	-22	-5
-31	-25	-35	2	-23	-9	45
-27	-27	-35	0	-34	-5	125
-34	-32	-37	-7	-48	-15	101
-45	-37	-42	-12	-56	-32	9
-54	-39	-49	-10	-60	-42	-24
-56	-37	-56	0	-61	-32	-10
-53	-35	-63	13	-61	-9	-8
-52	-40	-73	17	-65	6	-10
-56	-53	-86	5	-73	3	-13
-64	-67	-93	-17	-81	-14	-58
-68	-72	-91	-37	-80	-34	-89
-67	-68	-84	-45	-72	-54	-63
-67	-60	-82	-39	-67	-77	-53
-73	-54	-85	-26	-68	-102	-107
-81	-48	-87	-11	-70	-121	-113
-84	-40	-79	2	-64	-125	-32
-74	-22	-54	14	-48	-105	31
-45	9	-9	29	-22	-53	31
2	52	47	55	9	22	57
56	95	101	88	37	99	91
100	126	137	117	54	151	75
121	136	150	130	59	167	50
113	122	140	120	55	152	66
79	91	112	86	41	118	41
28	48	71	33	16	75	-51
-24	0	23	-27	-16	34	-92
-70	-49	-28	-84	-51	-2	-35
-100	-93	-78	-127	-81	-31	-4
-111	-126	-116	-151	-97	-49	-46
-106	-142	-132	-154	-99	-51	-71
-92	-135	-122	-138	-89	-39	-10
-75	-110	-90	-109	-74	-20	62
-63	-81	-52	-83	-62	-6	75
-63	-62	-26	-71	-56	-3	27
-72	-60	-21	-76	-52	-9	-20
-85	-70	-35	-91	-46	-15	-30
-94	-87	-60	-106	-36	-17	-25
-99	-101	-82	-113	-25	-18	-60
-99	-108	-96	-105	-17	-26	-121
-98	-108	-103	-90	-17	-50	-153
-98	-106	-106	-79	-24	-82	-117
-101	-103	-106	-78	-32	-104	-54
-100	-96	-100	-85	-33	-102	-21
-93	-85	-88	-96	-26	-79	-38
-77	-73	-73	-103	-13	-49	-71
-56	-60	-57	-98	0	-24	-84
-31	-46	-43	-82	6	-11	-70
-5	-29	-29	-54	4	-11	-50
23	-3	-10	-18	0	-8	-26
54	34	21	23	2	9	-18
82	78	65	63	9	41	-14
97	111	102	85	14	70	11
95	120	119	83	12	84	47
81	107	113	64	6	85	21
65	84	94	38	0	80	-45
57	65	75	20	-2	78	-37
59	62	67	19	3	89	49
70	72	72	34	15	114	72
75	82	80	50	26	136	20
64	77	76	49	27	137	1
39	52	56	28	19	114	42
10	18	25	-2	9	76	48
-11	-14	-6	-33	3	34	17
-17	-31	-28	-50	4	3	10
0	-25	-28	-40	15	-2	18
33	1	-6	-7	32	9	9
65	32	22	30	46	19	20
80	52	45	58	49	15	29
76	55	54	69	41	1	-29
59	41	47	60	23	-12	-113
34	15	27	36	3	-20	-91
10	-12	4	8	-12	-16	0
-4	-32	-11	-10	-19	-1	27
-13	-40	-18	-17	-21	12	-9
-17	-39	-19	-13	-22	16	-5
-16	-29	-13	1	-19	15	26
-6	-8	0	23	-14	17	31
7	14	16	41	-5	19	42
20	31	29	50	7	19	77
28	39	41	49	26	19	61
30	40	48	42	48	20	20
24	30	46	30	65	19	41
12	15	33	16	72	15	83
3	5	17	10	73	10	28
2	6	6	13	71	1	-55
6	15	2	23	66	-14	-27
11	25	3	34	58	-36	50
17	30	9	42	52	-55	20
22	30	14	43	50	-62	-63
21	19	13	30	47	-59	-74
13	0	1	1	41	-52	-39
0	-24	-15	-32	34	-48	-44
-15	-43	-33	-61	26	-49	-44
-32	-53	-46	-75	15	-59	-20
-45	-54	-53	-73	3	-72	-48
-47	-43	-48	-54	-3	-78	-112
-37	-22	-32	-25	-1	-70	-94
-22	-2	-14	1	5	-52	-37
-9	9	0	19	13	-31	-61
0	10	5	24	25	-11	-117
6	3	4	21	37	1	-65
5	-8	-4	8	40	1	11
2	-19	-16	-7	36	-7	-19
3	-19	-21	-18	32	-11	-79
10	-6	-12	-15	34	-8	-54
19	12	3	-1	41	-6	3
24	26	16	16	50	-9	32
21	27	18	27	61	-15	44
12	14	6	29	69	-25	17
0	-5	-13	24	67	-37	-92
-12	-24	-32	14	54	-40	-171
-20	-36	-41	1	36	-32	-137
-27	-40	-41	-14	15	-27	-73
-36	-41	-37	-33	-4	-32	-76
-45	-40	-31	-51	-17	-39	-83
-47	-35	-24	-61	-15	-36	-38
-36	-22	-13	-49	2	-23	2
-13	-2	1	-16	27	-2	-20
13	18	17	22	46	18	-46
33	30	25	47	52	30	-44
39	29	23	48	43	26	-20
30	18	13	30	23	15	0
13	4	2	4	1	10	0
0	-2	0	-12	-14	11	-52
-5	2	8	-7	-20	15	-115
-2	16	23	13	-20	18	-110
2	30	34	36	-24	21	-43
3	34	34	44	-35	22	-17
1	29	23	39	-51	22	-42
0	21	13	29	-65	22	-56
6	18	10	22	-73	23	-30
16	20	16	21	-71	19	-1
24	27	26	22	-60	12	15
26	34	34	21	-44	7	10
20	36	36	15	-28	6	-11
11	35	30	6	-16	6	-19
6	32	22	-1	-7	7	1
8	30	16	-1	2	6	0
17	26	13	3	13	5	-30
26	19	9	8	23	8	-63
33	14	7	9	32	16	-65
33	12	7	9	34	25	-42
24	10	5	5	25	24	-14
7	6	0	-4	3	13	-23
-11	0	-9	-16	-20	1	-42
-24	-8	-17	-29	-35	-8	-1
-27	-17	-25	-38	-34	-11	77
-17	-21	-27	-40	-20	-3	79
8	-14	-18	-29	2	13	9
42	5	0	-5	24	27	-43
73	26	20	22	33	33	-39
90	40	32	42	28	35	-7
94	44	35	46	20	38	51
86	39	32	38	17	41	85
72	31	28	26	22	43	45
55	22	26	14	29	41	-6
38	16	23	3	29	31	-1
23	12	16	0	18	11	-8
17	10	6	5	0	-8	-56
21	9	-3	15	-21	-18	-66
31	8	-10	22	-34	-17	6
41	6	-9	26	-38	-7	57
42	5	-4	27	-38	5	39
27	3	0	23	-40	11	-7
2	4	3	18	-45	4	-37
-14	15	9	21	-44	-8	-24
-10	33	21	36	-36	-14	49
12	51	32	51	-22	-7	109
42	58	40	58	-6	14	99
67	57	46	62	8	44	64
77	51	50	65	15	74	79
71	47	54	70	14	88	90
57	53	59	79	9	76	54
46	70	68	92	7	47	18
42	86	74	100	7	15	22
43	90	70	96	6	-5	31
44	79	57	80	7	-9	41
41	56	39	58	7	2	58
32	28	18	37	1	14	39
18	6	0	23	-11	14	-44
5	0	-9	24	-30	-2	-92
-2	4	-10	36	-52	-29	-48
-7	13	-10	48	-74	-59	-1
-10	19	-10	49	-88	-79	-36
-10	19	-10	36	-82	-79	-70
-12	11	-11	12	-60	-58	-28
-19	-2	-17	-16	-33	-32	16
-30	-19	-26	-37	-12	-17	-16
-43	-35	-38	-41	-8	-18	-65
-52	-49	-54	-31	-20	-34	-84
-55	-59	-70	-22	-40	-60	-86
-52	-69	-82	-24	-55	-84	-73
-52	-77	-89	-42	-57	-95	-46
-57	-83	-86	-69	-47	-93	-63
-65	-81	-73	-90	-33	-86	-122
-72	-70	-55	-95	-24	-80	-127
-70	-52	-36	-77	-25	-76	-58
-53	-29	-19	-42	-28	-65	-1
-20	-3	0	1	-23	-40	30
19	24	21	42	-7	2	75
49	46	46	72	15	55	132
59	61	69	85	38	106	169
51	66	86	77	54	142	184
30	59	89	53	54	152	143
5	41	77	21	40	132	55
-14	18	53	-8	21	89	20
-26	-3	24	-26	3	37	60
-33	-22	-6	-33	-8	-6	47
-42	-41	-34	-35	-15	-31	-41
-55	-59	-57	-42	-16	-34	-83
-70	-76	-71	-60	-16	-22	-41
-83	-89	-76	-86	-19	-15	-27
-92	-98	-75	-115	-25	-27	-59
-94	-100	-70	-135	-32	-53	-71
-87	-90	-61	-134	-33	-78	-69
-69	-71	-52	-110	-26	-83	-77
-48	-50	-46	-75	-15	-68	-49
-31	-38	-44	-44	-3	-40	8
-20	-34	-44	-26	4	-15	11
-19	-39	-43	-26	7	-4	-48
-26	-50	-41	-43	3	-6	-57
-35	-57	-35	-64	-2	-13	-7
-41	-56	-25	-75	-6	-14	12
-41	-47	-15	-73	-7	-8	-30
-37	-36	-11	-61	-5	-2	-52
-32	-29	-13	-46	-3	2	-20
-27	-25	-17	-35	0	5	18
-22	-25	-19	-33	4	9	14
-19	-29	-19	-40	8	16	-12
-19	-34	-16	-50	10	25	-33
-19	-36	-13	-57	12	28	-29
-22	-38	-13	-57	13	21	-16
-26	-40	-19	-53	12	7	-16
-31	-44	-28	-47	9	-8	-50
-34	-46	-37	-42	6	-18	-92
-33	-46	-41	-40	4	-21	-97
-30	-43	-39	-41	5	-20	-62
-27	-40	-35	-43	6	-17	-52
-24	-36	-29	-43	7	-14	-83
-21	-34	-25	-41	7	-11	-112
-20	-34	-25	-37	6	-8	-98
-20	-34	-26	-33	4	-4	-64
-19	-33	-26	-30	4	0	-34
-19	-29	-24	-28	5	3	-39
-19	-24	-19	-27	8	7	-86
-19	-19	-14	-26	11	10	-113
-18	-17	-10	-25	13	13	-59
-17	-15	-8	-23	13	16	-19
-16	-14	-6	-21	13	17	-84
-14	-12	-4	-18	12	18	-160
-12	-9	-1	-14	12	19	-117
-11	-5	1	-12	12	20	-48
-10	-3	4	-10	12	20	-63
-9	-1	5	-8	12	21	-27
-8	0	7	-6	12	21	-44
-6	1	7	-3	12	20	15
-5	2	8	0	12	18	65
-4	4	8	1	12	17	67
-4	5	8	4	12	16	57
-3	6	9	6	13	17	32
-1	7	11	7	15	18	4
1	10	14	9	15	19	-2
3	12	18	11	15	18	9
5	16	20	15	12	15	-10
5	19	22	21	9	12	-37
5	22	22	27	6	9	-2
5	22	20	29	5	7	77
5	22	18	27	7	8	92
7	22	17	24	11	11	26
10	21	17	21	15	13	-24
13	22	18	19	17	13	-2
16	24	19	21	17	11	17
19	27	21	27	17	9	5
20	30	21	32	18	6	11
21	33	21	36	19	5	39
26	39	24	39	23	8	66
36	46	32	44	29	17	141
50	55	42	52	36	30	257
66	67	56	64	43	46	292
79	78	70	78	47	58	206
83	84	76	86	47	62	135
75	80	72	84	41	56	123
57	65	56	71	31	43	67
35	43	31	50	19	23	-47
14	18	5	26	7	1	-101
0	0	-14	6	1	-18	-63
-4	-9	-22	-4	0	-33	-11
-4	-11	-21	-8	-1	-44	11
-6	-12	-19	-7	-4	-54	24
-11	-14	-17	-6	-8	-57	17
-17	-20	-19	-4	-12	-51	1
-23	-29	-26	-7	-17	-42	7
-28	-39	-37	-15	-23	-35	26
-28	-42	-43	-24	-26	-29	-6
-24	-37	-42	-28	-26	-27	-75
-19	-26	-34	-26	-27	-31	-87
-16	-14	-22	-18	-26	-42	-36
-11	-2	-8	-3	-21	-52	-39
-3	6	2	14	-12	-54	-111
5	9	5	30	-3	-50	-135
12	7	0	39	3	-42	-61
17	5	-4	45	6	-30	1
21	11	-1	50	8	-17	2
23	25	9	56	8	-8	-7
25	42	25	61	7	-5	-22
30	58	38	68	7	-2	-63
35	65	42	70	7	2	-76
37	57	31	63	3	6	-44
34	37	12	45	-4	3	-33
34	20	0	27	-10	-3	-58
42	19	7	18	-9	-7	-34
53	32	26	18	-4	-8	22
61	48	45	20	1	-6	23
61	58	53	21	7	0	-35
55	59	48	20	11	12	-81
47	54	35	18	11	25	-78
41	50	26	21	7	34	-31
41	50	27	30	-1	39	21
41	53	35	44	-14	39	26
34	48	38	51	-27	34	-11
17	30	27	44	-41	20	-8
-4	2	4	27	-49	2	26
-20	-23	-20	10	-51	-10	15
-24	-37	-37	-1	-47	-13	-36
-19	-38	-42	-8	-41	-5	-56
-11	-32	-39	-15	-31	6	-40
-7	-29	-36	-28	-20	15	-14
-12	-35	-38	-45	-9	19	15
-21	-46	-41	-61	0	16	34
-28	-55	-42	-67	4	12	11
-31	-58	-38	-59	3	8	-6
-30	-55	-31	-41	-1	4	25
-25	-46	-24	-16	-7	3	53
-13	-32	-19	8	-5	5	13
6	-13	-12	26	4	15	-40
36	8	0	33	19	31	-19
66	29	19	26	30	50	52
84	44	41	8	29	68	78
83	51	63	-10	16	76	51
65	54	82	-14	-2	69	24
39	56	92	3	-20	49	25
16	57	91	34	-30	25	21
3	54	75	58	-33	1	7
-1	41	46	57	-33	-19	-9
0	21	12	31	-31	-34	-33
4	4	-10	-1	-26	-35	-50
18	5	-8	-18	-15	-20	-21
36	24	17	-5	-2	-2	20
53	51	53	30	8	11	7
64	76	83	68	13	20	-34
66	85	95	86	13	27	-5
54	69	77	70	8	27	64
32	33	36	27	4	21	67
11	-6	-10	-22	7	15	-2
-2	-34	-45	-60	17	5	-66
-13	-47	-61	-76	24	-16	-82
-23	-44	-55	-73	19	-49	-64
-32	-29	-31	-54	6	-77	-54
-35	-10	0	-28	-8	-83	-76
-37	0	18	-6	-21	-68	-95
-40	-8	16	-1	-29	-40	-46
-40	-30	-5	-14	-28	-9	30
-36	-52	-34	-33	-21	16	55
-33	-65	-56	-48	-13	29	37
-32	-61	-62	-50	-8	27	24
-31	-38	-47	-37	-4	15	1
-30	-7	-20	-11	2	0	-40
-37	12	0	8	7	-14	-50
-54	4	-3	6	5	-31	-33
-74	-26	-26	-15	1	-45	-59
-89	-65	-59	-42	0	-51	-82
-98	-100	-92	-66	-1	-49	-31
-104	-122	-116	-81	-4	-48	17
-104	-122	-122	-80	-7	-50	-56
-101	-102	-106	-66	-8	-51	-154
-98	-73	-77	-51	-9	-43	-116
-96	-49	-47	-45	-13	-25	4
-90	-32	-23	-43	-17	3	40
-72	-19	-9	-38	-16	37	13
-45	-10	-5	-29	-11	70	28
-13	-2	-7	-15	-2	92	65
18	8	-5	3	12	97	31
37	19	1	21	25	86	-33
33	23	7	27	27	62	-55
11	19	9	19	12	35	-66
-12	16	12	11	-8	14	-104
-20	21	15	13	-24	2	-114
-12	27	14	22	-33	-10	-73
3	27	7	30	-34	-28	-56
15	18	-2	31	-30	-49	-99
13	2	-12	21	-28	-70	-98
-5	-17	-17	-1	-33	-81	-13
-31	-29	-13	-26	-42	-72	50
-46	-25	1	-33	-43	-42	6
-47	-10	17	-20	-34	-7	-64
-37	0	20	-1	-20	16	-44
-25	0	8	12	-8	27	29
-12	-7	-7	18	0	30	37
3	-12	-15	19	6	23	-9
24	-7	-4	19	13	14	-22
46	7	21	24	22	9	0
57	21	45	30	31	5	-20
42	16	44	24	32	-6	-56
1	-11	10	0	20	-23	-53
-47	-49	-39	-33	2	-37	-56
-79	-76	-82	-59	-10	-48	-88
-79	-80	-98	-65	-11	-61	-57
-47	-59	-81	-51	3	-68	26
-1	-28	-43	-28	25	-63	18
29	-6	-9	-14	44	-50	-79
27	-7	0	-21	47	-38	-90
-5	-29	-16	-42	35	-28	-9
-46	-57	-45	-64	16	-18	11
-73	-73	-68	-75	2	-10	-41
-69	-68	-70	-68	0	0	-44
-37	-40	-47	-45	11	14	17
6	-4	-11	-19	27	28	61
36	22	17	-4	38	28	59
40	30	26	-3	36	9	53
25	21	17	-9	27	-12	53
4	6	6	-13	19	-17	57
-9	-4	2	-14	16	2	55
-14	-6	9	-11	19	37	43
-15	-1	22	-6	21	70	17
-18	6	31	-2	19	83	-20
-20	12	30	0	16	68	-40
-17	13	20	3	18	36	-20
-3	11	10	6	25	7	3
20	10	9	11	38	0	-26
48	14	22	16	52	11	-89
67	23	42	20	57	28	-90
65	31	56	20	44	32	-29
45	32	54	18	18	15	-6
19	26	36	18	-6	-13	-68
2	14	8	21	-20	-39	-122
0	2	-17	24	-19	-50	-90
17	1	-24	31	-5	-40	-20
50	20	-4	49	18	-11	7
86	54	34	75	42	21	5
109	85	73	96	50	38	-9
114	102	97	104	42	33	-49
108	102	101	99	28	17	-92
95	88	84	82	13	-1	-72
77	67	56	55	0	-21	-30
62	53	33	33	-2	-36	-44
56	55	29	30	10	-34	-43
52	62	36	39	29	-17	63
45	63	43	46	44	5	158
46	63	52	53	57	39	138
67	75	73	72	76	89	119
105	101	104	100	97	144	209
145	134	140	129	110	187	274
174	164	173	154	112	209	209
174	172	185	158	97	207	107
140	145	160	127	62	177	46
80	88	102	65	16	124	-16
21	24	31	-2	-20	61	-73
-19	-29	-30	-53	-41	0	-81
-41	-66	-74	-83	-48	-53	-77
-49	-86	-94	-93	-52	-93	-108
-50	-93	-93	-90	-57	-116	-100
-47	-92	-80	-85	-65	-126	-26
-41	-84	-63	-80	-69	-125	20
-26	-64	-42	-68	-62	-110	-11
-1	-33	-18	-45	-40	-83	-50
27	0	2	-16	-10	-50	-45
44	20	14	2	11	-19	-18
39	20	12	2	15	2	-3
20	5	1	-12	3	7	-11
-1	-14	-9	-32	-10	0	-37
-17	-29	-15	-46	-20	-9	-33
-26	-38	-19	-52	-24	-15	8
-28	-39	-23	-48	-22	-20	33
-28	-37	-29	-40	-19	-26	12
-30	-34	-36	-34	-19	-33	-20
-35	-30	-40	-31	-22	-36	-24
-36	-23	-34	-26	-20	-35	-1
-34	-14	-20	-18	-16	-26	7
-30	-9	-3	-10	-15	-8	-28
-28	-7	6	-2	-19	13	-73
-26	-8	6	4	-28	22	-46
-22	-10	0	9	-36	15	38
-13	-7	-5	13	-38	1	77
-1	1	-4	18	-31	-10	40
9	12	2	24	-17	-13	-7
13	22	12	31	-4	-8	-20
9	26	15	33	3	-1	-23
-6	17	0	25	2	-8	-33
-28	-5	-30	7	-4	-37	-29
-47	-32	-67	-14	-13	-77	-12
-52	-49	-90	-27	-18	-103	-2
-44	-52	-90	-27	-16	-96	5
-31	-42	-72	-20	-11	-56	30
-23	-30	-51	-21	-10	-6	29
-26	-26	-41	-35	-15	25	-39
-42	-36	-51	-60	-28	25	-79
-66	-55	-75	-83	-48	1	5
-84	-70	-95	-85	-68	-23	90
-81	-65	-89	-54	-76	-22	55
-57	-38	-57	-1	-68	10	13
-26	-7	-13	42	-50	56	91
-4	8	17	53	-32	80	162
-1	0	19	27	-20	68	123
-20	-33	-9	-23	-18	34	76
-53	-74	-55	-73	-26	2	76
-77	-99	-88	-95	-31	-4	56
-76	-91	-87	-77	-23	18	39
-53	-55	-55	-34	-8	51	70
-20	-10	-6	12	5	67	70
12	30	41	47	16	57	5
38	56	72	63	24	30	4
47	59	74	57	26	3	73
41	43	52	38	25	-12	71
30	25	23	19	25	-16	-1
20	10	0	6	23	-20	-19
11	2	-11	-1	12	-35	5
6	2	-8	0	-6	-52	-8
9	10	5	10	-25	-56	-15
15	17	19	19	-39	-41	32
17	16	24	20	-47	-15	41
14	8	18	14	-47	7	-12
9	0	5	4	-41	13	-10
4	-9	-9	-8	-34	1	76
3	-12	-21	-16	-30	-12	102
9	-7	-21	-14	-24	-10	31
20	1	-11	-6	-14	10	25
24	5	-3	-5	-3	35	132
15	-3	-3	-15	6	46	161
1	-19	-11	-25	14	36	32
-7	-29	-19	-26	21	11	-67
-8	-30	-23	-17	25	-15	-3
-5	-24	-23	0	26	-32	65
-4	-14	-21	19	24	-39	9
-12	-8	-21	28	16	-43	-57
-29	-12	-29	20	1	-52	-40
-43	-18	-38	6	-14	-64	-39
-38	-13	-33	5	-19	-72	-86
-13	5	-10	22	-13	-72	-71
15	28	21	45	-1	-64	2
31	44	49	62	10	-53	-14
28	47	62	68	18	-44	-86
6	34	55	59	20	-40	-70
-26	9	29	34	14	-39	-6
-57	-17	-4	5	7	-36	-34
-76	-32	-27	-14	7	-28	-88
-79	-30	-29	-21	11	-13	-28
-72	-16	-13	-18	13	2	75
-57	6	13	-5	5	12	68
-35	32	43	14	-9	17	-18
-9	53	63	31	-28	18	-81
6	56	61	33	-48	10	-98
9	41	39	18	-64	-5	-81
3	20	13	0	-70	-18	-26
-4	10	2	-8	-65	-19	16
-5	20	16	0	-53	-8	4
3	50	54	24	-35	10	-11
16	84	98	48	-10	33	5
23	97	118	50	14	48	-3
11	71	96	20	34	42	-46
-14	15	39	-27	45	18	-58
-39	-40	-22	-66	48	-8	-9
-48	-65	-56	-75	44	-22	39
-33	-45	-44	-47	36	-19	52
0	10	8	6	32	-3	31
43	77	78	59	31	21	-13
76	124	133	91	31	42	-40
88	135	151	94	25	51	-13
81	116	135	78	15	49	10
64	85	105	61	3	48	-28
46	58	73	50	-4	53	-74
28	36	47	42	-7	57	-44
15	19	28	33	0	57	21
6	6	16	20	13	58	40
-3	-10	3	-3	20	56	4
-19	-32	-13	-37	12	46	-52
-33	-49	-25	-66	-2	35	-94
-39	-53	-26	-79	-18	30	-89
-42	-51	-24	-79	-32	19	-42
-40	-47	-24	-68	-38	-1	-7
-19	-30	-12	-39	-24	-16	-7
18	1	12	3	2	-10	7
52	29	32	36	23	4	41
64	38	35	48	28	17	36
59	33	26	43	28	29	-23
45	22	12	33	29	39	-56
25	4	-4	20	32	38	-16
13	-10	-18	13	44	27	35
17	-14	-20	15	67	24	26
24	-18	-22	14	86	32	-25
13	-39	-42	-6	86	35	-91
-21	-78	-80	-47	67	23	-147
-62	-115	-118	-91	41	1	-139
-90	-133	-137	-118	17	-24	-62
-95	-122	-128	-118	-1	-52	-16
-72	-83	-90	-89	-10	-66	-38
-30	-28	-38	-44	-8	-53	-27
7	15	4	-4	-4	-18	27
26	32	23	18	-5	16	8
25	25	18	24	-9	38	-63
14	7	6	20	-16	44	-52
6	-5	0	15	-24	39	29
7	-2	7	18	-29	32	68
19	16	25	28	-27	40	76
28	31	33	30	-22	62	79
24	30	22	17	-19	81	22
13	18	0	0	-17	85	-53
4	5	-17	-10	-13	78	-23
1	-1	-23	-10	-8	62	67
7	0	-15	-1	-2	40	72
26	11	7	14	14	22	14
52	27	33	29	40	19	20
69	33	42	26	62	21	59
70	25	31	9	75	19	31
62	12	11	-6	83	13	-26
51	1	-8	-12	86	8	-30
36	-9	-25	-14	83	-2	4
15	-25	-41	-24	71	-25	29
-8	-48	-59	-43	53	-54	40
-31	-71	-74	-70	32	-73	34
-46	-86	-83	-94	10	-67	1
-48	-85	-80	-98	-7	-35	4
-34	-64	-62	-72	-17	15	90
-4	-25	-26	-22	-15	73	180
30	23	20	34	-6	116	176
54	63	58	75	1	125	131
59	82	77	86	2	103	140
50	80	74	72	1	66	157
34	62	51	47	0	28	107
17	32	15	21	-6	-3	37
3	0	-21	3	-11	-28	8
-4	-24	-45	-6	-12	-50	-4
-12	-40	-55	-13	-13	-78	-17
-25	-52	-59	-25	-17	-110	3
-40	-57	-61	-38	-19	-131	29
-47	-54	-59	-44	-16	-129	13
-41	-43	-54	-38	-10	-105	1
-26	-30	-49	-26	-4	-69	36
-10	-20	-45	-16	-6	-41	53
-1	-19	-44	-15	-17	-41	0
-4	-28	-48	-23	-35	-69	-66
-17	-43	-56	-33	-52	-104	-68
-33	-56	-64	-41	-59	-120	-13
-44	-63	-67	-44	-56	-107	49
-52	-66	-67	-46	-47	-76	55
-56	-65	-68	-52	-39	-45	-4
-55	-62	-67	-60	-36	-29	-40
-51	-55	-64	-65	-40	-35	4
-45	-47	-59	-62	-47	-55	32
-37	-36	-46	-46	-47	-72	-23
-24	-19	-23	-18	-38	-73	-56
-16	-3	-2	7	-26	-65	13
-20	0	6	17	-24	-60	57
-32	-6	1	11	-33	-56	0
-45	-19	-16	-4	-50	-50	-39
-56	-38	-41	-25	-66	-44	5
-58	-53	-62	-39	-71	-34	46
-45	-53	-63	-37	-53	-12	55
-20	-38	-45	-23	-18	17	84
-3	-21	-21	-11	7	40	100
-2	-9	-4	-8	11	50	38
-14	-4	5	-11	-5	47	-21
-30	-4	4	-18	-30	31	15
-42	-11	-8	-27	-51	6	98
-44	-21	-25	-37	-53	-15	116
-33	-26	-37	-44	-34	-21	58
-17	-26	-41	-44	-3	-15	15
-8	-25	-41	-37	18	-10	39
-13	-27	-42	-26	20	-13	66
-25	-31	-43	-13	11	-23	18
-31	-32	-41	-1	6	-30	-43
-25	-30	-37	1	13	-27	-5
-11	-30	-34	-8	26	-10	82
7	-28	-28	-23	39	13	96
27	-18	-14	-25	45	34	65
42	-3	3	-8	40	39	82
46	12	19	16	26	27	121
40	22	29	37	15	6	121
31	25	33	42	17	-9	104
21	19	33	29	26	-18	89
16	11	31	5	32	-16	52
22	10	38	-8	29	-4	43
38	23	54	1	21	12	92
58	44	74	27	11	27	121
69	63	87	51	3	35	73
66	73	90	63	-1	38	27
53	75	87	64	-4	38	46
41	76	85	63	-6	39	81
34	79	88	67	-7	43	94
34	82	92	75	-10	42	98
35	81	91	81	-11	29	68
33	71	82	76	-7	4	8
22	51	61	57	-3	-26	-11
2	25	33	30	-6	-50	17
-19	4	8	12	-14	-58	6
-33	-2	-4	12	-19	-48	-44
-37	3	-7	24	-15	-30	-31
-37	11	-5	33	-7	-18	37
-38	10	-7	27	2	-24	47
-46	-3	-16	3	9	-40	-13
-60	-27	-31	-31	7	-51	-52
-73	-52	-48	-59	0	-47	-29
-77	-69	-60	-70	-1	-28	21
-70	-73	-65	-63	7	-4	71
-55	-68	-64	-48	27	14	87
-42	-61	-62	-39	49	15	52
-39	-57	-59	-42	62	0	21
-46	-54	-54	-55	58	-15	39
-53	-45	-40	-61	42	-18	54
-43	-20	-11	-47	28	-6	21
-11	19	29	-8	28	12	-19
35	64	73	43	39	26	-23
81	101	110	90	55	29	-12
114	125	135	118	68	18	-9
126	135	148	125	70	4	-28
123	138	151	115	61	-1	-68
114	138	150	100	46	4	-73
104	137	142	86	30	13	-14
93	126	123	73	14	16	14
76	102	96	56	-2	11	-56
58	75	69	39	-16	4	-128
47	57	57	30	-22	-1	-109
48	57	64	32	-19	-3	-70
55	71	82	41	-10	-4	-87
61	89	99	53	0	-9	-106
57	97	102	60	4	-18	-89
39	90	89	59	2	-22	-79
13	69	65	46	-1	-15	-83
-9	45	43	29	-5	0	-59
-21	28	29	18	-7	21	-31
-18	22	27	17	-6	37	-60
-8	21	29	21	-7	40	-97
-2	15	25	22	-13	34	-56
-4	0	10	15	-27	30	15
-13	-21	-9	0	-42	35	2
-23	-37	-25	-19	-52	49	-66
-25	-36	-25	-27	-51	66	-56
-12	-13	-3	-13	-43	81	26
9	22	30	19	-35	82	33
33	53	59	52	-32	64	-58
50	66	74	70	-34	39	-113
55	56	67	65	-36	17	-90
43	26	39	34	-35	1	-94
16	-14	-1	-14	-29	-9	-133
-14	-49	-39	-61	-16	-12	-128
-42	-72	-64	-91	-4	-10	-105
-62	-85	-77	-105	1	-9	-119
-69	-88	-77	-106	1	-8	-99
-60	-79	-60	-92	3	4	-14
-39	-60	-35	-67	7	30	11
-17	-40	-13	-41	9	57	-61
-1	-21	2	-19	7	78	-78
9	-2	14	2	2	93	-7
15	13	24	22	-6	100	18
17	26	32	35	-14	99	-22
21	38	42	43	-12	99	-20
34	55	59	52	2	110	30
48	69	72	57	23	123	51
51	68	70	48	37	129	32
41	50	51	28	38	122	8
22	24	27	9	30	108	-19
5	0	6	0	21	89	-26
-6	-14	-8	-2	12	70	13
-10	-19	-16	3	7	53	55
-4	-11	-18	15	8	43	39
7	1	-18	26	11	39	-23
16	10	-18	28	13	39	-55
17	10	-19	21	11	41	-23
13	6	-17	8	9	38	20
6	-1	-14	-6	7	25	1
0	-12	-16	-20	2	-1	-59
-4	-25	-24	-30	-1	-34	-69
0	-35	-36	-31	3	-59	-28
10	-41	-48	-27	17	-67	-23
16	-50	-61	-25	32	-60	-69
9	-60	-73	-31	40	-50	-92
-6	-66	-78	-44	37	-43	-48
-26	-65	-72	-57	26	-40	18
-41	-60	-60	-65	10	-38	50
-45	-50	-44	-65	2	-33	48
-36	-40	-33	-57	4	-19	35
-24	-38	-35	-44	11	-1	22
-23	-49	-53	-34	12	7	9
-35	-70	-82	-34	4	0	17
-57	-90	-106	-42	-10	-12	46
-74	-95	-110	-53	-21	-18	51
-76	-83	-90	-61	-21	-10	39
-65	-62	-61	-68	-13	1	75
-51	-50	-42	-73	-3	4	126
-40	-53	-41	-71	4	-2	88
-34	-67	-55	-60	9	-16	-2
-30	-79	-72	-44	12	-29	2
-21	-78	-77	-24	16	-29	76
0	-52	-58	1	24	-8	82
30	-9	-21	32	33	20	29
58	34	16	59	37	34	21
77	65	45	78	33	29	67
88	83	63	92	26	15	117
91	91	74	102	20	6	169
90	95	79	108	19	9	209
92	100	86	114	26	32	193
100	109	96	125	44	69	151
104	114	101	135	60	98	128
93	103	90	132	61	95	99
63	76	60	110	42	56	27
20	38	19	74	7	-6	-55
-25	1	-22	35	-29	-78	-89
-60	-29	-57	0	-55	-140	-70
-76	-52	-81	-29	-62	-174	-43
-73	-65	-94	-51	-53	-178	-55
-59	-73	-99	-66	-40	-163	-94
-50	-78	-99	-75	-36	-145	-84
-53	-77	-95	-73	-48	-132	-9
-64	-67	-83	-57	-68	-118	36
-75	-51	-66	-32	-86	-100	7
-78	-35	-48	-8	-93	-74	-10
-69	-25	-37	0	-86	-43	45
-49	-24	-34	-11	-66	-13	101
-27	-33	-40	-35	-41	5	96
-12	-46	-51	-59	-21	2	66
-5	-55	-58	-69	-7	-20	43
-2	-50	-55	-57	0	-50	10
4	-30	-38	-25	3	-71	-24
18	2	-13	18	7	-75	-19
36	36	13	57	12	-63	-10
51	58	30	77	20	-45	-66
53	58	31	73	27	-30	-122
36	34	12	44	30	-33	-70
1	-9	-21	-3	26	-55	23
-38	-52	-54	-50	18	-79	12
-64	-74	-66	-76	12	-83	-54
-69	-69	-52	-74	11	-62	-23
-58	-45	-23	-55	13	-31	58
-38	-17	7	-32	12	-4	50
-17	6	29	-16	5	8	-3
-4	18	35	-15	-7	2	1
0	20	27	-26	-23	-14	19
-3	15	13	-37	-35	-25	-10
-11	6	0	-42	-42	-19	-31
-22	-4	-13	-39	-47	-2	-14
-32	-13	-20	-32	-51	16	-7
-31	-14	-17	-19	-51	27	13
-13	2	0	-2	-46	28	96
19	34	30	17	-34	25	172
56	70	64	35	-19	28	144
81	94	84	49	-5	39	56
81	95	81	53	0	52	29
57	74	58	47	-8	59	63
21	43	26	33	-24	55	74
-10	12	0	17	-38	34	45
-26	-6	-10	0	-47	6	19
-19	-6	-2	-11	-46	-13	21
3	5	15	-12	-34	-14	35
25	20	29	-2	-19	-3	39
30	27	29	7	-10	5	10
14	24	17	12	-10	4	-46
-14	11	0	7	-16	-3	-77
-47	-8	-16	-6	-25	-18	-60
-71	-31	-28	-28	-35	-33	-34
-76	-46	-30	-43	-39	-40	-36
-57	-43	-16	-43	-32	-37	-42
-23	-22	8	-28	-17	-30	-16
10	7	38	-7	-2	-23	25
30	36	64	14	5	-18	27
31	56	79	30	2	-13	-21
17	62	81	37	-9	-6	-78
-2	57	73	34	-25	3	-93
-17	47	63	22	-37	15	-57
-22	36	56	5	-37	24	-2
-18	28	55	-12	-29	28	26
-4	29	62	-19	-16	30	6
13	37	71	-12	-4	32	-16
28	43	73	0	1	35	14
34	42	62	9	2	41	47
30	33	43	7	2	50	1
18	15	18	-5	7	53	-69
-2	-9	-8	-25	12	40	-45
-22	-29	-27	-41	16	14	29
-28	-35	-31	-43	18	-12	31
-19	-28	-23	-30	19	-28	-17
0	-18	-15	-20	21	-29	-23
17	-15	-15	-19	29	-18	8
27	-23	-23	-28	46	-1	15
19	-44	-42	-43	66	8	6
-6	-71	-66	-65	80	4	-7
-37	-94	-87	-86	82	-8	-43
-58	-103	-96	-96	77	-17	-77
-64	-101	-95	-96	66	-18	-69
-62	-99	-94	-90	49	-16	-28
-60	-102	-96	-81	33	-13	-3
-62	-107	-97	-69	23	-9	-27
-69	-108	-94	-58	18	-2	-69
-76	-103	-85	-53	15	5	-64
-77	-87	-69	-50	14	15	-4
-66	-61	-46	-42	17	28	25
-49	-33	-22	-28	19	37	-20
-32	-11	-4	-10	14	39	-36
-18	4	7	7	2	32	17
-4	18	20	20	-11	24	29
14	35	39	32	-24	22	-42
40	57	61	49	-32	31	-68
68	82	85	75	-29	49	5
92	107	105	106	-18	67	48
102	121	115	133	-7	76	-8
93	121	111	144	0	67	-80
72	107	96	131	0	41	-129
47	88	78	97	-4	14	-164
31	69	62	59	-7	0	-136
25	52	48	30	-5	0	-36
29	40	36	15	0	11	13
41	35	31	14	9	22	-37
58	40	35	29	20	24	-45
70	47	43	47	30	15	38
70	51	49	56	36	1	63
59	46	47	48	43	-7	-21
42	29	33	27	54	-9	-77
23	2	6	-2	70	-4	-53
5	-31	-27	-38	84	-1	-50
-12	-64	-62	-72	86	-6	-81
-32	-91	-90	-91	73	-20	-71
-52	-105	-104	-93	46	-40	-53
-69	-105	-104	-82	13	-61	-75
-72	-92	-92	-66	-11	-77	-75
-58	-71	-72	-46	-17	-80	-25
-30	-50	-54	-30	-8	-68	-24
-3	-37	-44	-24	4	-47	-102
10	-36	-44	-24	9	-30	-136
6	-41	-47	-23	1	-19	-74
-9	-47	-50	-22	-12	-17	-23
-28	-54	-51	-24	-25	-22	-56
-37	-56	-46	-29	-27	-25	-100
-32	-52	-36	-33	-16	-13	-79
-19	-46	-26	-35	-1	8	-35
-5	-39	-19	-32	8	26	-39
6	-26	-11	-20	10	34	-70
14	-8	1	0	10	36	-78
18	7	15	19	9	38	-55
16	16	23	28	7	42	-24
11	15	25	27	6	50	4
6	10	21	21	6	59	0
5	6	12	21	6	62	-39
15	12	8	32	9	56	-55
36	31	16	53	18	48	-26
59	57	36	72	29	44	-14
77	83	63	82	36	45	-39
85	103	89	86	37	49	-51
87	117	109	90	33	51	-34
83	123	118	96	29	45	-21
77	122	113	106	24	34	-1
71	113	96	113	18	26	20
63	98	74	107	13	26	-9
51	81	55	86	9	32	-50
40	65	45	62	5	42	-7
36	57	46	47	6	51	73
39	57	56	48	13	50	51
47	62	69	58	23	35	-45
54	66	76	65	31	17	-65
51	60	71	58	32	4	-3
35	41	51	35	26	0	20
12	16	23	7	18	5	-25
-6	-2	0	-9	14	18	-48
-14	-7	-9	-2	13	28	1
-9	4	-2	23	12	26	52
9	31	21	55	7	16	36
32	63	52	81	-2	11	4
45	84	73	86	-18	14	32
43	83	76	65	-32	24	85
34	67	66	33	-30	41	86
24	40	47	1	-11	57	59
7	0	12	-30	8	51	28
-23	-53	-36	-69	11	16	-59
-62	-107	-90	-107	-4	-32	-171
-104	-150	-136	-138	-34	-78	-162
-144	-175	-166	-157	-71	-113	-26
-162	-170	-167	-154	-92	-120	78
-134	-122	-121	-110	-73	-80	108
-60	-37	-38	-32	-20	3	173
25	49	48	48	34	99	281
92	112	112	106	66	180	322
125	140	143	133	72	229	264
120	138	144	132	58	232	186
82	108	118	107	34	184	149
30	63	74	68	16	102	129
-18	13	22	21	9	13	70
-59	-39	-35	-33	6	-67	-17
-94	-94	-98	-93	-6	-127	-60
-119	-139	-150	-142	-26	-156	-25
-126	-157	-173	-163	-44	-151	34
-117	-143	-161	-149	-55	-126	79
-96	-106	-123	-107	-60	-96	101
-73	-63	-80	-59	-60	-72	77
-56	-34	-50	-27	-61	-67	31
-50	-29	-45	-20	-67	-80	33
-51	-43	-60	-32	-74	-96	68
-51	-60	-79	-49	-73	-95	61
-47	-69	-87	-66	-60	-77	24
-42	-68	-83	-78	-41	-53	24
-43	-62	-73	-83	-22	-36	43
-51	-60	-68	-84	-11	-36	31
-65	-66	-72	-82	-13	-56	-10
-76	-75	-82	-71	-26	-85	-53
-72	-75	-84	-50	-39	-103	-58
-52	-59	-70	-24	-48	-98	12
-24	-33	-41	-3	-51	-76	95
1	-7	-10	5	-48	-50	102
17	12	14	5	-39	-28	61
22	22	28	5	-30	-13	67
19	30	35	13	-24	-3	104
16	39	38	32	-22	5	110
19	55	45	62	-22	13	93
28	74	55	93	-25	19	76
38	86	65	112	-28	20	64
44	85	67	109	-26	19	77
45	72	61	88	-17	17	96
41	56	51	61	-4	16	63
32	45	41	42	7	13	2
21	40	33	33	11	0	10
11	42	30	34	5	-23	65
6	47	32	41	-11	-49	73
6	48	33	42	-37	-64	45
8	41	30	31	-61	-60	42
8	29	22	11	-74	-39	55
0	12	9	-9	-74	-14	57
-19	-11	-12	-27	-65	-2	72
-44	-36	-37	-38	-53	-12	85
-58	-50	-52	-36	-38	-31	41
-49	-46	-49	-18	-25	-48	-12
-21	-29	-34	3	-17	-55	12
12	-8	-14	21	-9	-46	79
39	5	0	28	0	-25	80
44	3	0	21	9	-3	33
26	-14	-15	3	13	7	48
-1	-38	-33	-16	12	10	110
-24	-53	-43	-31	7	5	102
-35	-57	-42	-42	-3	-10	25
-36	-54	-34	-47	-18	-34	-9
-30	-43	-22	-45	-31	-51	24
-27	-32	-9	-36	-40	-53	46
-35	-30	-6	-30	-49	-49	40
-47	-34	-12	-27	-61	-44	29
-53	-38	-17	-23	-69	-37	-12
-46	-40	-22	-23	-68	-33	-62
-30	-42	-26	-30	-59	-32	-37
-8	-40	-25	-36	-41	-27	37
15	-28	-12	-32	-15	-10	44
33	-8	8	-21	4	7	-12
39	11	28	-11	9	13	-26
41	31	42	-1	0	0	-2
44	45	46	6	-13	-26	7
45	42	34	4	-22	-50	12
47	26	16	-5	-16	-52	20
57	12	6	-8	12	-25	19
67	4	5	-3	49	17	44
62	-3	5	-3	68	51	72
38	-13	-2	-14	58	57	12
1	-26	-20	-35	23	32	-92
-40	-46	-46	-63	-24	-10	-79
-76	-66	-71	-89	-64	-42	15
-86	-71	-77	-94	-72	-44	26
-66	-56	-60	-73	-46	-17	-26
-34	-34	-34	-38	-8	15	-25
-8	-16	-14	-8	18	35	-4
7	-4	-3	11	31	35	-30
15	3	0	23	33	22	-41
18	11	2	32	29	15	-4
24	25	12	45	30	28	-5
36	44	33	57	40	59	-47
42	54	49	54	49	85	-28
32	42	47	27	48	86	42
10	15	26	-13	39	60	34
-10	-11	1	-44	36	21	-62
-23	-26	-19	-53	43	-14	-104
-30	-27	-31	-41	51	-33	-40
-33	-19	-31	-18	55	-33	5
-36	-9	-22	-2	50	-22	-37
-43	-5	-13	-6	38	-15	-74
-46	-5	-3	-19	26	-9	-34
-33	6	17	-19	31	8	9
-2	32	47	0	56	39	7
31	61	73	30	85	67	5
56	81	88	54	103	82	9
68	92	94	66	109	88	-5
67	89	91	60	103	88	3
50	70	75	37	87	82	46
28	44	53	13	70	78	40
14	26	36	3	63	82	-32
6	18	25	5	60	82	-56
-4	11	12	4	47	58	-25
-18	4	1	-3	24	15	-53
-31	0	-3	-13	0	-22	-138
-39	-4	-3	-23	-14	-35	-160
-39	-7	-1	-24	-11	-21	-103
-28	-4	4	-10	14	10	-37
-5	10	16	21	56	47	12
18	27	25	51	94	65	43
31	34	25	64	109	51	21
31	28	15	54	97	20	-26
28	16	4	32	74	0	-38
32	11	2	16	57	4	-18
49	19	13	20	56	28	-34
70	37	31	41	66	52	-91
85	55	47	65	74	57	-123
87	61	53	76	73	37	-94
72	49	45	65	59	2	-48
47	22	25	40	41	-24	-37
28	0	9	20	35	-24	-51
27	-9	6	20	54	6	-44
34	-8	7	30	80	45	-25
29	-14	0	27	89	62	-34
9	-29	-16	2	72	45	-78
-12	-41	-26	-29	41	8	-121
-24	-42	-24	-52	9	-31	-125
-23	-31	-12	-54	-9	-57	-74
-6	-10	5	-32	-8	-55	-19
20	13	19	1	9	-26	-26
38	25	19	23	25	9	-75
37	19	4	20	29	34	-65
27	10	-7	2	22	47	2
19	7	-7	-10	14	50	28
15	10	0	-11	7	43	-7
13	13	8	-3	2	35	-23
15	16	13	9	2	37	-2
19	18	17	18	4	47	8
18	17	20	16	5	52	6
12	15	24	4	3	43	6
6	17	31	-5	0	21	-39
4	18	35	-8	-5	-8	-97
5	16	28	-6	-12	-31	-66
10	9	11	0	-15	-29	18
22	4	-3	12	-8	3	10
36	5	-7	25	4	51	-57
44	7	-1	32	10	86	-43
40	6	6	25	4	85	18
27	1	12	9	-14	52	18
9	-7	9	-11	-37	6	7
-6	-21	-6	-31	-54	-25	39
-14	-32	-24	-42	-56	-26	57
-7	-31	-32	-34	-39	4	46
7	-17	-26	-11	-16	42	59
21	0	-11	13	-6	59	51
28	18	7	32	-15	40	-23
32	38	30	47	-30	1	-61
37	59	54	63	-40	-32	-5
41	74	70	75	-41	-42	31
40	76	72	80	-34	-27	-15
35	68	61	79	-20	1	-59
22	48	41	72	-10	25	-52
-2	18	12	49	-17	27	-41
-36	-17	-16	12	-41	3	-42
-65	-43	-33	-21	-69	-31	-40
-77	-47	-29	-36	-89	-58	-45
-68	-30	-8	-28	-97	-61	-35
-43	1	25	1	-93	-37	39
-9	41	63	46	-78	7	139
22	79	99	94	-61	64	181
42	104	124	127	-50	118	159
51	114	135	139	-44	156	141
50	111	132	129	-44	166	133
37	90	108	97	-52	140	92
11	50	63	46	-68	83	7
-23	-1	5	-13	-87	11	-78
-62	-56	-54	-69	-103	-55	-100
-102	-108	-109	-118	-117	-107	-43
-135	-147	-151	-151	-122	-133	5
-151	-163	-170	-162	-114	-133	-36
-153	-162	-173	-156	-98	-120	-104
-150	-158	-170	-149	-87	-114	-97
-144	-152	-165	-143	-81	-118	-66
-127	-138	-150	-131	-74	-125	-86
-101	-116	-126	-108	-67	-131	-106
-69	-87	-98	-77	-62	-135	-95
-30	-53	-66	-37	-51	-130	-112
9	-20	-37	4	-34	-115	-127
31	-1	-20	31	-24	-101	-68
32	0	-19	33	-26	-99	-21
26	0	-18	20	-29	-100	-65
27	10	-5	8	-27	-91	-74
34	26	15	1	-24	-67	8
42	39	35	1	-22	-34	38
47	43	44	7	-22	2	-28
38	30	32	10	-24	29	-74
11	0	-1	4	-33	29	-93
-19	-35	-43	-11	-42	0	-116
-35	-55	-72	-26	-40	-39	-84
-30	-52	-75	-32	-24	-61	-20
-6	-32	-53	-27	0	-58	-39
24	-4	-19	-12	21	-36	-69
45	19	11	3	32	-11	-9
44	25	21	10	28	-2	14
17	7	2	-2	10	-19	-88
-21	-26	-36	-32	-11	-51	-145
-52	-59	-74	-67	-20	-68	-71
-59	-77	-91	-86	-10	-52	-13
-42	-74	-84	-82	12	-18	-30
-15	-55	-62	-60	32	8	-37
4	-33	-38	-29	38	12	-43
8	-17	-25	-5	28	-8	-81
-4	-15	-29	0	8	-42	-82
-23	-25	-45	-13	-7	-66	-16
-32	-36	-59	-34	-11	-58	24
-23	-38	-60	-47	1	-25	2
2	-24	-43	-40	21	10	-3
37	4	-10	-8	39	33	47
69	43	30	40	50	40	80
86	76	65	86	53	30	48
82	88	78	109	50	6	-8
60	75	65	99	46	-17	-16
30	40	32	59	45	-29	10
0	-4	-11	1	45	-26	17
-19	-44	-50	-46	43	-8	-2
-21	-58	-62	-60	41	26	-11
-5	-38	-40	-33	40	71	7
13	2	1	16	36	102	55
22	45	44	63	25	103	103
21	74	75	89	17	80	103
14	81	84	82	20	53	47
5	61	66	46	33	33	17
-2	23	32	0	51	21	48
-1	-6	1	-35	70	19	67
4	-17	-10	-46	80	20	18
3	-12	-10	-41	70	11	-36
-7	0	-3	-27	45	-4	-37
-17	14	7	-12	21	-4	-6
-17	25	17	0	12	18	24
-6	29	21	6	21	52	62
14	30	24	11	43	81	74
41	35	34	18	70	100	47
60	42	47	24	86	101	46
55	38	50	19	82	83	103
31	23	41	6	62	54	114
7	10	30	-3	41	31	47
-1	6	25	-1	33	16	28
0	9	23	6	35	-3	84
3	10	17	7	38	-30	69
-1	3	6	-5	37	-53	-33
-16	-13	-9	-30	30	-66	-74
-38	-38	-28	-61	16	-73	-17
-56	-57	-39	-82	0	-73	36
-54	-56	-31	-78	-5	-56	76
-31	-35	-8	-48	1	-23	120
-3	-9	16	-9	15	14	103
16	9	30	16	26	49	46
25	17	32	23	31	74	69
26	20	30	18	34	86	123
25	22	32	12	30	79	70
23	29	40	9	18	62	-19
19	35	49	13	-3	47	8
15	41	58	26	-24	43	64
14	49	64	44	-36	44	26
16	58	67	56	-39	37	-24
20	66	68	61	-35	18	-27
29	77	71	65	-25	-5	-64
37	82	74	66	-14	-29	-99
30	69	63	55	-13	-56	-30
7	35	34	33	-19	-82	43
-11	0	4	13	-15	-95	-11
-16	-19	-12	1	2	-97	-58
-9	-17	-12	-4	18	-91	4
0	1	1	-5	21	-76	28
5	27	24	3	11	-52	-59
-2	44	41	16	-12	-35	-92
-27	39	40	21	-39	-35	-29
-55	17	23	18	-52	-37	-6
-67	-5	5	12	-41	-24	-18
-61	-23	-10	1	-17	3	31
-46	-33	-22	-12	1	37	62
-27	-34	-24	-19	8	68	16
-12	-26	-17	-11	2	84	33
-11	-17	-10	4	-13	75	145
-20	-9	-4	21	-29	52	145
-24	3	5	41	-31	41	7
-16	21	18	58	-20	48	-43
-4	33	25	60	-12	59	29
7	34	22	48	-13	61	26
17	27	16	31	-18	45	-60
16	12	5	13	-28	6	-69
0	-10	-11	-5	-40	-45	-11
-26	-30	-26	-19	-48	-84	-18
-46	-43	-33	-24	-47	-98	-59
-55	-49	-38	-28	-43	-92	-56
-53	-53	-42	-35	-41	-75	-44
-34	-50	-41	-35	-32	-48	-60
-6	-40	-33	-26	-14	-21	-47
14	-32	-27	-13	2	-6	2
18	-28	-26	0	9	-4	3
10	-25	-22	11	9	-4	-69
1	-17	-14	18	3	-3	-107
-6	-7	-4	13	-8	-4	-50
-8	1	3	1	-20	-6	24
-4	9	10	-6	-23	-1	17
3	16	15	-4	-13	12	-13
9	17	16	3	0	29	24
13	16	16	14	13	46	76
20	19	23	27	24	64	50
31	27	34	37	30	75	-11
39	34	43	42	28	69	-53
44	39	46	45	19	45	-89
42	38	40	48	9	14	-100
32	29	24	46	1	-12	-38
14	9	0	29	-5	-30	15
-6	-17	-25	-1	-10	-39	-17
-26	-42	-44	-36	-13	-37	-47
-39	-60	-54	-60	-15	-30	1
-45	-65	-53	-62	-18	-26	32
-42	-56	-45	-41	-21	-24	-7
-34	-38	-34	-10	-24	-20	-38
-26	-23	-24	7	-27	-9	-23
-21	-16	-20	1	-27	3	-11
-19	-20	-22	-24	-23	17	-11
-22	-31	-27	-52	-21	27	-29
-29	-44	-37	-68	-22	26	-73
-36	-54	-49	-66	-26	14	-84
-40	-57	-59	-54	-27	0	-15
-39	-52	-63	-41	-22	-10	44
-32	-42	-57	-36	-11	-8	22
-20	-28	-43	-36	3	4	-18
-7	-13	-23	-31	14	22	-14
-1	-2	-6	-21	11	33	-3
-4	1	-1	-11	-4	30	-5
-12	-2	-7	-9	-22	19	-15
-16	-8	-19	-14	-30	12	-38
-11	-13	-29	-20	-25	13	-51
-1	-16	-34	-25	-12	17	-4
4	-20	-36	-30	0	18	62
2	-24	-34	-32	5	17	75
-1	-22	-25	-27	8	18	56
4	-3	0	-9	14	32	79
31	37	42	23	27	67	132
72	87	94	69	45	117	158
110	127	135	109	56	160	138
128	139	149	123	54	171	97
119	118	129	105	42	144	63
88	75	84	63	26	93	55
51	28	30	15	13	38	54
22	-5	-10	-18	1	-6	26
8	-19	-32	-29	-7	-30	-33
4	-22	-38	-22	-13	-37	-60
2	-25	-39	-15	-14	-43	-22
-5	-37	-44	-19	-10	-59	34
-17	-53	-54	-31	0	-80	34
-26	-66	-64	-45	11	-92	4
-31	-69	-68	-56	14	-90	5
-32	-64	-66	-60	3	-77	31
-29	-53	-58	-54	-13	-58	24
-20	-39	-44	-41	-22	-36	-5
-7	-23	-25	-25	-15	-20	-27
7	-7	-4	-11	1	-13	-30
21	6	13	-2	20	-10	-6
31	13	19	-2	30	-8	36
33	8	7	-7	25	-8	38
30	-5	-16	-10	11	-8	-4
27	-18	-37	-2	4	-2	-4
30	-17	-41	16	10	7	65
36	-2	-22	36	25	16	109
38	22	10	45	38	20	80
32	41	40	35	42	16	25
17	43	49	9	34	2	2
0	27	33	-15	20	-16	14
-8	4	5	-26	8	-32	37
-5	-11	-17	-20	4	-38	40
4	-10	-20	-4	5	-36	31
17	6	-1	11	11	-22	42
25	31	28	18	19	2	65
24	49	53	15	25	27	69
16	52	58	6	30	39	53
5	39	41	0	30	33	9
-6	14	9	-3	21	10	-47
-24	-16	-30	-12	1	-25	-47
-50	-49	-68	-31	-27	-59	11
-76	-72	-92	-54	-56	-78	16
-92	-76	-95	-70	-71	-75	-36
-86	-57	-74	-68	-65	-55	-18
-54	-18	-35	-43	-36	-29	64
-4	25	8	-6	1	-8	60
42	56	37	24	35	-1	-11
67	62	42	35	50	-3	-26
64	48	28	27	44	-5	-2
40	26	10	8	22	-3	-8
10	9	0	-6	-6	1	6
-11	5	3	-10	-27	10	42
-16	13	17	-2	-33	15	12
-12	18	24	7	-31	5	-53
-13	7	10	7	-27	-17	-21
-26	-19	-18	-2	-25	-39	68
-50	-50	-49	-18	-25	-51	70
-76	-71	-67	-31	-29	-55	-9
-95	-76	-65	-35	-30	-50	-35
-100	-66	-51	-34	-28	-42	6
-93	-55	-40	-34	-24	-46	24
-81	-49	-39	-36	-23	-66	-8
-62	-43	-41	-35	-19	-81	-23
-39	-29	-31	-24	-7	-72	15
-16	-7	-7	-5	9	-39	68
0	18	23	15	26	3	79
7	36	46	30	37	41	54
3	35	47	32	37	56	32
-4	16	26	19	28	41	29
-4	-1	3	5	15	13	27
9	-3	-5	0	9	-3	31
28	9	4	7	6	-3	37
40	27	23	16	3	0	16
38	37	34	23	-1	-6	-19
23	30	27	22	-6	-27	-15
3	7	0	15	-9	-57	0
-5	-13	-28	12	-7	-80	-41
4	-15	-40	20	1	-78	-120
29	3	-28	37	10	-54	-140
54	33	1	53	9	-25	-79
67	60	39	61	0	-7	-1
67	76	72	58	-10	-1	16
56	75	89	45	-17	-1	-23
42	63	88	33	-14	3	-40
31	50	77	31	-1	20	10
27	41	62	39	16	40	47
24	38	48	52	28	48	17
22	41	42	65	30	35	-17
23	48	49	74	22	16	12
28	58	66	75	10	7	37
38	68	86	68	-1	16	18
50	75	102	59	-9	44	-8
59	75	105	52	-13	77	-17
54	64	89	40	-15	94	-30
30	38	55	19	-17	82	-24
-8	1	10	-13	-24	47	5
-49	-37	-30	-46	-33	10	1
-74	-61	-54	-68	-43	-14	-59
-71	-58	-51	-63	-50	-22	-97
-44	-27	-23	-28	-55	-14	-74
-11	14	13	20	-57	-1	-31
8	44	39	52	-59	6	-18
11	50	45	53	-57	10	-30
8	36	38	32	-42	22	-35
12	16	25	5	-16	44	-15
25	0	14	-12	14	64	5
39	-8	8	-16	38	72	-21
43	-8	5	-10	48	62	-92
29	-10	1	-8	40	37	-117
3	-17	-3	-20	19	8	-57
-15	-23	-4	-37	0	-11	4
-12	-17	4	-41	-3	-10	-13
12	1	20	-27	8	5	-42
42	23	34	-6	26	25	-18
58	36	39	13	41	39	8
56	38	35	26	46	45	-27
39	29	25	27	39	39	-68
14	10	10	15	23	21	-72
-6	-9	-4	-1	7	-3	-67
-20	-25	-19	-17	-1	-27	-53
-33	-43	-38	-34	-5	-47	14
-53	-67	-64	-57	-8	-61	59
-74	-92	-90	-81	-9	-62	-6
-86	-106	-105	-98	-5	-49	-95
-86	-109	-106	-107	-2	-27	-71
-79	-106	-98	-110	-2	-2	-11
-65	-96	-83	-99	0	22	-38
-43	-78	-61	-73	8	45	-81
-20	-60	-40	-41	19	56	-28
-6	-50	-29	-19	27	46	33
-3	-50	-30	-14	27	20	9
-7	-57	-39	-27	22	-10	-36
-14	-64	-51	-48	12	-28	-50
-15	-65	-57	-58	7	-20	-72
-2	-50	-50	-44	16	18	-67
25	-21	-26	-13	39	74	6
55	8	1	14	65	117	61
71	22	17	22	78	124	14
67	17	16	12	69	95	-36
52	4	8	-2	45	48	-9
40	2	6	-1	19	6	23
41	18	19	25	2	-12	0
54	49	46	69	1	-8	-16
72	82	78	104	14	5	15
79	99	94	111	30	11	51
68	88	84	91	37	2	38
47	59	53	63	35	-8	-12
33	34	24	46	31	-8	-58
35	29	13	50	29	3	-52
50	43	24	69	27	14	2
68	69	49	86	24	14	61
77	91	74	87	16	1	67
73	100	86	75	5	-14	12
57	94	81	65	-2	-22	-46
36	77	61	66	-4	-12	-40
15	55	36	77	-2	9	-3
-2	34	12	86	-4	26	0
-13	18	-5	84	-11	23	-23
-16	13	-9	70	-21	7	-8
-15	18	-1	46	-32	-8	29
-16	24	8	23	-38	-21	34
-29	20	7	3	-40	-37	-1
-59	-4	-18	-18	-44	-57	-39
-101	-50	-66	-49	-53	-76	-56
-140	-103	-120	-87	-64	-89	-34
-158	-140	-155	-119	-68	-89	-8
-146	-147	-156	-132	-58	-68	-16
-114	-127	-125	-124	-40	-32	-40
-82	-97	-84	-106	-23	-6	-28
-65	-77	-58	-89	-17	-6	4
-68	-79	-61	-83	-21	-21	31
-87	-100	-87	-93	-33	-34	44
-104	-120	-111	-108	-39	-32	32
-100	-114	-104	-104	-28	-10	25
-69	-76	-58	-77	-1	30	110
-27	-20	8	-38	26	73	232
13	35	72	2	46	102	246
44	76	114	38	57	113	167
55	88	119	58	55	111	135
44	71	90	52	42	98	124
20	38	48	29	25	77	57
-3	7	13	2	11	48	-11
-25	-14	-10	-22	0	11	-25
-43	-28	-24	-42	-9	-29	-43
-52	-34	-33	-51	-15	-68	-52
-54	-38	-43	-52	-18	-96	-8
-51	-43	-55	-53	-22	-107	22
-44	-46	-64	-53	-28	-97	-15
-26	-37	-57	-43	-31	-72	-9
-1	-14	-34	-20	-29	-41	70
25	16	-3	10	-23	-17	109
46	44	23	41	-14	-12	71
56	59	33	63	-4	-27	33
53	56	24	65	0	-51	6
37	37	0	46	-1	-73	-28
15	10	-25	17	-8	-88	-46
-7	-15	-45	-9	-17	-92	-51
-23	-31	-52	-26	-22	-84	-94
-27	-32	-46	-28	-19	-69	-124
-21	-25	-34	-19	-10	-53	-71
-13	-18	-26	-8	-4	-40	7
-7	-16	-27	-3	-3	-30	3
-2	-17	-29	-5	-3	-19	-42
1	-17	-28	-10	-1	-3	-28
9	-11	-19	-12	5	15	38
20	2	0	-4	17	36	62
34	21	20	14	31	49	28
42	35	34	39	36	47	-9
40	38	34	54	31	31	-7
32	31	27	52	23	13	13
25	23	22	34	18	5	26
22	20	23	13	14	10	17
22	24	28	0	6	19	-11
22	34	32	4	-8	22	-43
18	43	31	22	-29	12	-41
10	46	22	41	-49	-9	0
3	41	12	50	-58	-26	37
2	33	8	46	-48	-22	30
5	25	13	32	-27	6	24
10	16	19	16	-6	41	58
9	7	20	3	0	63	96
2	0	13	0	-7	61	74
-5	-2	4	0	-23	40	19
-7	0	2	7	-33	16	3
-1	4	6	15	-30	2	50
2	3	9	13	-20	1	89
-1	-10	4	-3	-9	8	70
-7	-28	-5	-29	1	18	26
-10	-40	-11	-49	8	23	26
-9	-39	-8	-59	10	21	55
-1	-25	7	-52	10	16	73
11	0	31	-27	13	14	63
22	24	51	3	20	11	38
23	36	55	23	25	1	16
15	32	42	23	28	-12	43
8	18	24	10	32	-18	92
4	2	9	-8	35	-15	81
0	-11	4	-26	32	-8	16
-1	-15	11	-35	27	4	-2
0	-6	27	-29	23	21	21
1	9	43	-11	17	28	15
-2	24	49	5	8	17	-4
-6	32	46	15	-2	1	10
-5	34	41	18	-8	-8	25
0	33	39	14	-7	-9	41
12	32	43	6	-3	-4	79
30	34	52	2	3	2	84
46	39	59	7	10	2	5
52	40	53	18	13	-7	-44
40	29	31	25	8	-22	12
16	11	-1	21	0	-32	71
-5	-4	-30	10	-6	-33	49
-16	-10	-43	0	-4	-26	21
-10	-5	-38	-5	1	-21	33
7	9	-19	-2	7	-25	52
28	24	2	6	11	-38	61
38	26	12	12	11	-47	78
31	13	5	7	8	-44	72
13	-6	-11	-6	5	-30	55
-1	-22	-27	-18	4	-9	71
-8	-28	-36	-19	3	6	92
-7	-23	-37	-11	-3	8	39
1	-8	-26	2	-15	0	-47
12	13	-7	16	-27	-6	-65
22	35	14	25	-33	-1	-25
29	53	35	33	-28	12	-14
36	64	52	44	-12	28	-34
42	63	57	56	5	31	-57
40	49	45	62	17	9	-78
31	27	24	56	18	-26	-84
19	8	5	38	10	-56	-39
8	0	-3	15	0	-64	-8
5	8	2	1	-4	-49	-53
15	28	20	5	0	-21	-98
32	46	37	21	8	6	-48
40	46	38	31	11	13	11
30	24	20	24	5	1	-11
10	-5	-1	8	-4	-9	-52
-12	-28	-14	-5	-14	-6	-35
-32	-39	-18	-11	-24	1	-12
-46	-40	-16	-10	-35	2	-20
-52	-35	-15	-6	-46	-7	-29
-52	-31	-18	-11	-54	-23	-36
-46	-28	-22	-23	-56	-36	-56
-29	-21	-18	-31	-45	-29	-37
-3	-6	-3	-23	-23	5	25
22	9	14	-2	1	46	41
35	17	24	18	16	69	-15
30	13	22	26	16	69	-38
11	3	13	20	4	56	-11
-14	-8	4	5	-12	39	-25
-34	-11	0	-3	-26	31	-98
-38	-2	3	6	-32	36	-129
-28	10	10	32	-31	46	-96
-14	20	14	59	-27	42	-51
-7	19	9	68	-26	18	-21
-11	6	0	52	-28	-16	-9
-24	-10	-7	17	-29	-45	-46
-37	-22	-8	-14	-27	-56	-86
-40	-22	1	-27	-21	-42	-60
-29	-7	20	-16	-13	-3	7
-12	12	37	4	-4	43	9
0	23	41	21	0	71	-52
-1	21	30	25	2	70	-100
-11	10	11	18	6	48	-88
-25	-5	-7	9	13	21	-54
-36	-20	-22	6	18	-3	-43
-38	-28	-28	13	20	-14	-54
-32	-31	-26	20	18	-10	-29
-30	-38	-31	13	8	-4	17
-37	-52	-48	-9	-5	-8	10
-48	-65	-66	-33	-11	-16	-50
-51	-65	-72	-47	-5	-10	-72
-44	-51	-64	-45	8	7	-57
-26	-29	-46	-30	24	26	-48
-3	-8	-24	-9	37	41	-26
12	0	-12	5	42	47	7
15	-8	-14	4	39	39	-39
4	-27	-29	-6	33	18	-120
-14	-50	-48	-21	23	-3	-102
-38	-71	-69	-35	10	-22	-28
-60	-88	-91	-50	-2	-42	-62
-74	-102	-112	-65	-13	-67	-156
-81	-115	-128	-80	-18	-86	-164
-77	-122	-136	-92	-15	-84	-112
-66	-122	-133	-97	-3	-61	-108
-53	-118	-122	-95	11	-24	-118
-44	-111	-111	-89	20	11	-94
-38	-104	-100	-79	19	29	-83
-32	-93	-88	-70	14	20	-94
-25	-80	-75	-66	5	-4	-58
-16	-63	-59	-65	-7	-24	-15
-5	-43	-40	-60	-16	-23	-42
4	-24	-21	-52	-18	-3	-81
6	-13	-10	-45	-16	19	-30
0	-14	-10	-44	-15	27	25
-9	-21	-14	-45	-13	14	-20
-13	-28	-17	-47	-8	-10	-87
-10	-31	-17	-47	-2	-27	-62
-1	-27	-12	-42	3	-21	-12
9	-19	-6	-30	13	1	-21
12	-14	-7	-21	20	20	-63
2	-17	-16	-24	20	19	-88
-10	-21	-25	-39	17	5	-101
-15	-20	-23	-53	19	0	-78
-6	-12	-9	-60	23	10	-21
11	-2	7	-55	24	32	7
31	6	20	-37	21	52	-30
44	12	21	-12	12	50	-69
40	9	8	5	-5	18	-77
22	0	-11	0	-26	-23	-73
2	-8	-25	-20	-38	-41	-77
-2	-2	-17	-41	-32	-17	-77
17	22	14	-43	-9	36	-45
59	64	62	-15	23	91	64
111	117	117	43	54	128	197
160	173	167	121	78	149	245
196	220	208	193	92	166	203
210	245	230	235	97	190	184
196	240	228	233	95	214	193
158	204	201	189	83	218	149
105	150	156	120	61	179	64
47	93	104	52	29	96	9
-5	45	53	3	-2	-5	-32
-42	15	15	-21	-23	-83	-65
-57	1	-6	-24	-25	-112	-44
-51	-3	-18	-15	-10	-93	9
-35	-9	-25	-7	11	-54	0
-21	-16	-28	-10	22	-26	-32
-13	-18	-22	-18	12	-23	1
-11	-9	-4	-19	-14	-38	47
-13	10	19	-10	-44	-54	9
-12	33	42	6	-61	-56	-45
-2	52	57	29	-57	-39	-30
18	65	60	54	-33	-11	20
41	65	51	69	-2	8	24
53	52	33	66	16	5	-16
52	33	14	50	14	-16	-79
42	17	2	34	-2	-44	-121
30	10	0	24	-23	-67	-101
20	12	5	23	-37	-79	-44
18	23	19	28	-37	-76	-31
25	41	40	34	-22	-62	-65
34	56	60	37	2	-45	-89
39	56	65	28	25	-29	-59
34	34	46	7	36	-14	10
19	-5	5	-20	35	0	69
0	-47	-40	-42	30	17	74
-20	-72	-70	-52	23	36	72
-40	-73	-73	-50	15	47	107
-55	-52	-52	-38	6	37	114
-60	-19	-18	-19	0	14	30
-53	10	9	-2	-4	-10	-40
-36	26	21	3	-11	-29	-4
-10	33	22	0	-14	-36	61
22	40	27	1	-10	-28	59
49	53	39	15	-1	-9	37
61	68	54	41	3	10	40
56	79	66	73	4	26	38
42	81	67	100	4	38	23
25	68	53	106	2	43	49
12	44	29	83	-2	34	82
10	23	10	46	-1	14	40
19	15	5	15	8	-9	-50
30	17	11	4	21	-24	-47
35	25	21	12	29	-27	40
34	31	29	32	32	-18	62
31	32	31	52	32	-11	-7
28	27	28	61	30	-14	-12
29	20	24	57	28	-27	63
33	17	24	47	29	-41	82
38	19	31	36	28	-43	32
39	27	42	29	20	-28	39
38	38	57	28	8	0	94
35	51	73	33	0	29	121
32	58	82	40	-1	46	130
23	50	73	42	3	44	144
8	23	44	31	12	32	112
-10	-13	6	5	15	20	69
-30	-48	-27	-29	9	14	104
-48	-70	-47	-59	-4	9	170
-58	-71	-47	-72	-18	4	141
-57	-50	-27	-63	-25	-2	47
-47	-21	0	-37	-23	-14	-3
-33	4	21	-5	-18	-33	9
-19	16	29	18	-15	-54	27
-9	15	26	29	-16	-69	44
-4	8	19	30	-18	-72	65
-1	2	14	29	-12	-57	80
0	0	11	27	1	-29	81
-4	-4	4	21	14	-4	74
-17	-15	-9	7	19	0	34
-35	-31	-32	-12	13	-24	-28
-53	-48	-56	-32	2	-69	-67
-64	-60	-76	-43	-5	-113	-49
-63	-64	-85	-43	0	-137	-7
-49	-58	-82	-32	16	-130	11
-32	-50	-72	-19	34	-105	-21
-26	-50	-66	-15	37	-81	-58
-39	-59	-68	-23	21	-69	-41
-62	-74	-76	-41	-5	-70	16
-86	-88	-87	-60	-32	-73	24
-98	-94	-94	-74	-50	-69	-16
-92	-88	-92	-77	-50	-52	-4
-73	-74	-82	-70	-35	-26	83
-60	-67	-76	-62	-21	-3	122
-65	-78	-85	-66	-15	11	68
-82	-105	-107	-81	-16	19	15
-98	-132	-131	-100	-18	25	42
-98	-141	-140	-108	-23	32	92
-72	-117	-118	-91	-25	45	107
-26	-63	-69	-48	-18	58	93
17	-3	-13	3	-11	62	59
37	34	20	41	-11	46	-10
26	36	14	47	-18	14	-63
-5	3	-28	19	-27	-26	-56
-41	-46	-84	-28	-33	-64	-37
-65	-86	-124	-70	-31	-80	-65
-69	-99	-131	-89	-20	-73	-83
-59	-90	-109	-86	-5	-59	-50
-48	-72	-79	-75	-1	-61	-28
-43	-58	-59	-67	-11	-83	-64
-42	-48	-50	-66	-30	-108	-98
-35	-36	-46	-62	-45	-122	-98
-18	-15	-34	-48	-47	-109	-71
8	11	-10	-19	-34	-67	-35
36	37	17	13	-14	-13	-21
58	54	39	40	1	25	-72
68	60	50	52	5	38	-122
66	57	50	50	-4	33	-83
54	51	46	43	-23	27	6
41	52	48	44	-38	30	43
31	60	58	52	-45	46	47
28	69	71	62	-41	70	70
32	75	81	65	-29	95	93
42	77	84	63	-15	110	72
51	70	78	55	-9	110	22
50	56	67	45	-17	98	-39
38	41	55	40	-32	79	-77
21	28	50	40	-47	58	-59
2	19	47	38	-55	36	-13
-13	13	45	30	-50	18	-34
-20	10	40	18	-35	12	-98
-21	4	28	3	-15	18	-107
-21	-7	8	-14	-1	22	-48
-26	-26	-16	-35	2	16	-8
-33	-45	-39	-51	0	1	-2
-36	-57	-52	-56	-2	-14	-2
-32	-57	-48	-48	-4	-23	-7
-19	-42	-31	-27	0	-14	-25
2	-21	-9	-3	7	13	-29
23	-5	3	8	17	45	-33
35	-5	-2	-3	23	58	-59
36	-18	-23	-33	28	47	-77
31	-33	-45	-61	34	23	-31
24	-42	-55	-73	39	3	18
17	-41	-49	-65	39	-3	-8
8	-36	-34	-45	32	3	-74
-3	-34	-22	-28	18	14	-84
-22	-44	-23	-26	-2	15	-43
-47	-64	-41	-44	-23	4	3
-71	-87	-66	-70	-33	-10	24
-79	-95	-81	-87	-25	-13	7
-67	-83	-73	-84	0	1	-42
-41	-56	-48	-67	27	28	-43
-16	-30	-22	-45	45	50	7
-1	-17	-7	-26	43	56	16
-3	-19	-9	-15	22	45	-26
-20	-35	-26	-16	-6	25	-14
-42	-55	-48	-24	-29	6	26
-56	-68	-63	-31	-35	0	0
-55	-68	-65	-33	-29	4	-55
-45	-56	-58	-29	-18	11	-68
-31	-35	-41	-18	-7	15	-86
-16	-8	-19	2	0	15	-89
-8	14	3	24	-3	17	-8
-5	29	21	39	-12	24	72
0	37	35	46	-13	40	26
6	40	42	46	-6	63	-26
11	34	38	36	0	83	30
9	23	27	19	7	85	68
5	17	19	4	14	71	-9
4	21	22	3	21	50	-67
12	39	38	19	24	32	-32
34	69	67	48	27	23	16
66	106	100	82	36	25	23
94	132	123	108	43	30	11
101	132	122	110	41	26	-39
83	104	97	83	33	13	-96
48	58	58	39	21	-2	-99
10	13	18	-4	8	-17	-64
-16	-17	-9	-38	-2	-30	-71
-20	-23	-17	-53	-6	-43	-104
-2	-7	-8	-48	-2	-55	-111
22	15	5	-30	6	-68	-82
38	28	11	-9	15	-76	-42
43	30	11	13	26	-67	8
43	31	16	42	38	-31	53
50	43	36	78	52	27	104
71	74	75	112	66	97	165
104	118	126	138	80	159	200
137	159	168	148	88	192	150
150	175	180	138	84	180	47
134	160	156	112	67	127	-31
98	122	108	86	43	57	-33
55	79	56	68	19	0	7
17	40	14	55	4	-30	25
-10	12	-11	39	0	-34	-9
-24	-6	-19	16	7	-22	-36
-28	-17	-16	-13	20	-14	-17
-27	-28	-14	-46	29	-24	12
-26	-36	-16	-73	29	-52	3
-19	-37	-18	-83	22	-76	-11
-5	-27	-14	-72	16	-77	-11
9	-11	-6	-48	16	-56	3
19	1	1	-25	19	-25	13
25	9	11	-9	22	3	3
31	12	21	1	25	24	-42
34	9	28	3	22	26	-66
33	2	28	-5	9	9	-39
29	-5	24	-17	-7	-12	-14
26	-7	19	-26	-17	-24	-49
20	-5	13	-29	-21	-27	-86
14	-2	7	-25	-20	-27	-69
13	5	6	-11	-14	-22	-15
21	17	11	12	-4	-9	13
33	28	19	37	3	1	6
45	37	28	53	3	3	-26
56	48	43	63	1	3	-55
65	61	61	71	0	2	-52
66	71	76	72	-5	-7	1
59	76	83	65	-15	-29	44
51	82	86	59	-26	-44	9
48	91	89	58	-31	-39	-71
45	96	85	58	-32	-20	-68
39	91	73	53	-33	3	7
32	79	58	53	-31	23	29
26	61	44	58	-27	31	-14
16	38	28	58	-28	19	5
2	17	14	46	-38	-2	73
-7	5	6	28	-46	-13	63
-12	4	2	7	-48	-4	-25
-19	1	-6	-19	-47	9	-57
-29	-5	-22	-44	-40	16	-32
-34	-9	-33	-51	-26	11	-24
-35	-9	-36	-38	-11	-8	-27
-35	-12	-35	-25	-4	-36	-2
-38	-19	-35	-23	-9	-58	-14
-37	-27	-33	-30	-18	-63	-66
-34	-35	-34	-42	-27	-50	-54
-36	-47	-44	-57	-35	-33	42
-44	-58	-58	-68	-38	-20	70
-49	-58	-65	-60	-31	-12	6
-42	-43	-57	-34	-15	-3	-6
-26	-21	-38	-3	0	10	69
-5	1	-14	22	9	27	88
17	20	10	42	10	40	27
34	31	29	58	4	43	-10
37	31	36	65	-8	35	5
25	21	30	64	-26	13	12
4	7	15	60	-43	-16	26
-14	-2	1	53	-55	-42	47
-27	-9	-11	40	-58	-57	26
-32	-15	-20	21	-54	-65	-39
-31	-20	-27	3	-44	-68	-56
-27	-26	-31	-8	-27	-67	-30
-27	-38	-38	-17	-7	-59	-41
-41	-61	-57	-29	5	-56	-90
-70	-94	-86	-49	3	-64	-87
-105	-130	-120	-77	-7	-78	-38
-131	-156	-144	-102	-17	-88	-27
-140	-162	-152	-114	-23	-92	-80
-130	-148	-141	-106	-21	-92	-119
-105	-118	-117	-84	-8	-82	-125
-77	-88	-90	-62	8	-64	-111
-61	-73	-77	-52	14	-49	-69
-62	-79	-79	-58	8	-41	-10
-66	-92	-84	-64	1	-32	-22
-64	-94	-76	-55	3	-12	-90
-61	-85	-59	-34	7	7	-74
-64	-74	-46	-16	6	18	41
-74	-68	-44	-17	1	20	87
-84	-69	-51	-39	-4	18	33
-88	-76	-64	-72	-9	17	7
-80	-78	-70	-95	-7	25	52
-58	-64	-56	-92	3	43	62
-28	-34	-25	-60	15	59	20
-6	-1	8	-12	17	59	-4
7	29	37	34	7	42	22
20	55	59	69	-5	18	49
37	75	73	85	-15	-4	27
51	84	78	85	-18	-16	-50
54	81	72	75	-14	-13	-98
40	68	59	61	-9	-2	-70
7	43	37	44	-9	7	-12
-35	12	10	27	-12	9	12
-69	-18	-15	8	-14	6	21
-82	-41	-36	-16	-10	-1	-3
-72	-54	-49	-45	0	-12	-66
-50	-59	-55	-72	13	-23	-86
-25	-54	-51	-84	26	-25	0
-6	-40	-38	-77	34	-15	63
1	-23	-21	-56	36	2	18
1	-9	-8	-29	35	18	-29
-2	-4	-6	-11	34	29	15
-7	-11	-17	-10	34	33	59
-9	-23	-33	-22	33	32	41
-1	-30	-42	-28	31	35	16
17	-21	-32	-18	27	50	38
43	2	-5	4	22	74	84
68	30	26	29	16	98	119
81	53	51	47	11	112	97
75	60	58	47	8	108	42
49	48	44	26	2	82	16
13	26	19	0	-5	43	16
-19	1	-7	-20	-11	3	-32
-46	-27	-35	-38	-16	-30	-91
-68	-57	-63	-56	-18	-54	-103
-80	-77	-79	-66	-12	-59	-94
-81	-77	-74	-62	1	-46	-84
-77	-59	-53	-47	13	-31	-10
-69	-27	-21	-23	16	-24	72
-49	12	15	10	14	-21	54
-18	48	44	45	14	-19	-16
9	63	50	60	13	-19	2
24	50	33	47	11	-19	53
26	25	10	20	11	-10	31
22	2	-1	-4	13	6	-18
16	-5	5	-14	12	23	6
17	6	31	-4	9	39	50
31	37	67	29	8	50	58
51	73	98	67	10	56	47
63	95	108	87	11	53	33
62	96	95	78	10	42	-6
52	77	68	47	10	27	-7
36	44	33	7	10	9	56
21	6	0	-26	8	-11	77
13	-25	-27	-43	5	-33	-13
10	-44	-41	-45	0	-52	-84
10	-48	-42	-41	-9	-63	-50
9	-39	-30	-40	-19	-59	-12
11	-20	-8	-40	-23	-42	-58
18	4	15	-38	-18	-19	-90
33	28	36	-27	-5	1	-50
54	46	51	-7	11	15	3
76	55	59	9	24	19	17
92	55	61	14	31	15	12
100	50	62	10	35	15	-5
100	46	66	3	38	22	-6
99	45	70	4	40	33	23
104	52	74	22	45	44	57
119	65	78	53	55	53	50
136	77	82	84	63	58	31
148	84	84	99	66	53	26
150	86	87	96	67	42	44
146	88	93	83	69	37	60
138	90	100	69	67	42	55
127	88	102	60	60	50	17
116	82	95	59	50	51	-22
103	72	78	61	39	43	-42
83	53	51	59	25	24	-36
56	30	16	52	8	-3	-26
34	16	-9	48	-3	-24	-26
32	22	-12	56	-2	-23	-35
49	43	6	70	8	0	10
68	62	31	77	18	23	101
75	67	47	70	19	30	126
64	57	48	51	11	22	35
39	36	32	27	-4	8	-35
10	13	7	9	-21	-6	-8
-8	0	-15	1	-34	-15	21
-11	0	-25	0	-37	-21	-31
-5	5	-26	-3	-34	-28	-81
-4	8	-22	-10	-32	-37	-65
-13	7	-18	-21	-31	-44	-11
-26	4	-13	-29	-30	-44	21
-37	2	-11	-28	-26	-31	39
-39	3	-9	-14	-18	-13	51
-25	13	-2	12	-4	5	66
5	36	17	49	15	28	96
45	68	50	89	39	63	164
80	100	87	120	62	108	222
96	119	115	131	74	142	207
89	117	121	117	72	149	127
58	88	97	83	54	118	87
7	35	42	38	17	50	79
-48	-25	-24	-4	-24	-31	19
-91	-78	-80	-35	-56	-93	-74
-121	-116	-115	-58	-69	-117	-68
-145	-147	-138	-86	-71	-119	23
-167	-173	-156	-118	-67	-121	65
-181	-188	-169	-145	-62	-129	22
-183	-188	-176	-157	-60	-141	1
-172	-177	-176	-149	-64	-152	17
-146	-154	-163	-122	-67	-143	12
-109	-126	-139	-87	-61	-104	-5
-77	-107	-115	-64	-47	-46	21
-61	-104	-102	-60	-32	4	37
-59	-108	-95	-70	-21	30	11
-58	-103	-84	-81	-15	28	26
-51	-83	-62	-83	-15	4	121
-35	-51	-29	-71	-21	-25	150
-14	-15	5	-48	-28	-41	55
5	15	33	-20	-32	-32	-26
19	34	46	5	-29	-5	-3
23	38	43	25	-19	24	8
17	30	28	31	-10	32	-45
6	15	8	23	-6	5	-85
-2	1	-5	12	-7	-41	-81
-5	-3	-8	7	-10	-78	-78
-5	-2	-4	9	-14	-84	-59
-6	2	0	13	-17	-58	-26
-6	7	0	19	-10	-14	-19
-4	11	-2	21	5	27	-32
-4	6	-13	12	22	44	2
-11	-8	-31	-9	27	26	43
-20	-26	-44	-30	21	-9	26
-24	-33	-44	-34	10	-29	-31
-17	-23	-29	-20	0	-23	-55
-4	-1	-7	2	-9	-2	-38
9	20	7	25	-15	13	-3
16	31	8	37	-20	15	0
8	23	-6	28	-31	1	-30
-13	0	-30	1	-45	-21	-38
-39	-25	-48	-27	-52	-32	27
-54	-38	-47	-41	-44	-14	88
-53	-33	-31	-36	-24	23	74
-42	-19	-13	-21	-7	57	21
-35	-9	-3	-7	-6	73	17
-37	-8	-5	-4	-22	72	57
-46	-17	-15	-14	-47	60	100
-56	-27	-23	-34	-64	49	109
-56	-28	-19	-51	-57	47	79
-43	-17	-3	-54	-28	56	26
-26	-1	14	-42	5	60	-4
-19	8	23	-24	24	46	-22
-24	13	25	-4	22	15	-50
-35	16	28	13	8	-16	-65
-41	21	37	26	-5	-38	-25
-37	29	51	30	-10	-44	29
-26	34	63	23	-4	-34	49
-19	26	58	6	3	-20	38
-29	1	31	-20	0	-18	19
-53	-30	-7	-51	-15	-33	-12
-77	-48	-34	-69	-35	-51	6
-85	-42	-35	-66	-44	-58	103
-76	-19	-16	-45	-41	-47	182
-56	5	9	-16	-29	-19	131
-35	19	26	4	-13	15	41
-26	13	25	6	-3	42	36
-33	-10	8	-15	-8	47	69
-49	-36	-14	-47	-24	28	23
-62	-49	-29	-70	-40	1	-43
-67	-50	-37	-77	-46	-24	-37
-68	-48	-45	-70	-42	-45	4
-69	-49	-58	-58	-31	-58	-18
-69	-56	-71	-50	-18	-61	-79
-65	-63	-78	-53	-7	-57	-114
-54	-67	-76	-60	-1	-54	-113
-33	-62	-64	-60	1	-53	-102
-3	-47	-46	-48	4	-54	-61
25	-26	-26	-24	5	-57	-10
48	-1	-6	6	5	-56	3
64	26	16	38	7	-45	-25
74	53	40	63	13	-15	1
77	69	59	73	24	31	63
77	67	63	71	36	80	57
77	50	53	60	45	113	-15
78	27	36	47	50	119	-18
82	13	24	39	49	98	41
90	19	30	42	49	63	48
96	44	51	53	51	30	-13
92	72	74	63	51	8	-59
73	84	82	63	42	0	-83
44	74	70	53	25	-3	-74
16	46	39	36	6	-7	-14
-1	13	4	20	-6	-13	42
-2	-8	-18	12	-6	-19	13
8	-11	-20	17	7	-21	-36
18	-1	-5	26	21	-18	-30
18	8	12	29	22	-11	-7
7	11	22	19	9	-3	-31
-7	4	19	0	-6	3	-59
-14	-4	7	-18	-11	12	-59
-7	-8	-2	-27	1	24	-42
7	-3	-4	-20	28	31	-41
23	7	2	0	51	27	-59
34	18	14	24	61	11	-98
45	30	31	45	57	-6	-123
59	42	49	56	46	-21	-97
74	50	61	57	34	-26	-7
86	54	66	53	29	-21	77
92	58	68	52	34	-4	76
92	62	70	60	47	20	6
81	62	65	71	58	44	-22
61	51	51	72	58	57	-21
39	31	28	60	48	59	-91
20	7	4	36	30	55	-184
4	-17	-17	7	7	43	-143
-9	-36	-34	-16	-13	26	-25
-17	-41	-39	-22	-23	8	9
-19	-32	-35	-9	-18	-6	-26
-23	-21	-31	12	-7	-18	-20
-31	-16	-32	28	4	-27	-16
-38	-19	-36	35	16	-28	-42
-41	-26	-40	28	24	-21	-33
-41	-36	-44	7	26	-11	6
-39	-46	-50	-17	25	-6	-34
-33	-52	-55	-37	23	-11	-106
-27	-54	-58	-45	23	-19	-95
-22	-53	-58	-41	25	-18	-21
-18	-51	-54	-31	29	-4	-6
-14	-47	-47	-20	35	16	-52
-6	-38	-35	-14	42	37	-92
6	-22	-19	-14	46	53	-69
23	-3	-2	-18	43	54	-29
41	17	14	-16	30	37	-30
59	37	34	0	14	18	-64
73	53	51	25	0	9	-46
77	59	60	52	-11	11	-1
70	56	59	70	-17	19	-14
56	48	50	70	-17	35	-63
38	35	36	45	-15	54	-48
19	17	20	1	-15	64	-5
5	-1	9	-43	-17	62	26
-2	-17	4	-75	-19	55	79
-6	-28	0	-86	-19	49	133
-7	-31	-2	-71	-15	48	84
-3	-20	3	-32	-7	55	3
3	1	16	12	1	67	39
11	22	32	43	9	75	145
20	37	48	54	20	73	145
28	43	59	47	28	63	72
30	36	56	23	31	49	51
24	21	41	-3	30	36	88
16	7	22	-18	28	24	84
8	0	7	-17	22	8	42
1	0	-2	-3	10	-14	15
2	9	0	18	0	-36	16
15	30	14	47	-1	-46	13
29	49	30	66	-2	-49	15
35	57	37	63	-6	-49	35
38	58	39	45	-7	-44	46
43	60	41	29	-2	-33	5
50	66	45	22	2	-23	-21
53	73	48	25	1	-12	8
52	77	47	36	-6	1	19
43	75	40	48	-19	9	-54
27	61	27	47	-38	0	-100
6	38	11	30	-58	-22	-52
-6	17	2	4	-66	-43	-2
-7	4	3	-19	-56	-49	-27
-3	1	6	-34	-35	-36	-43
0	5	8	-36	-11	-3	-6
4	17	11	-21	12	40	57
12	37	19	8	32	79	112
26	61	34	46	45	101	135
49	85	58	79	50	110	100
72	99	81	96	53	110	77
80	92	87	87	52	99	114
60	59	64	53	44	71	144
16	11	21	9	28	28	89
-37	-30	-24	-26	7	-20	9
-82	-56	-62	-45	-16	-64	-43
-104	-64	-83	-47	-39	-94	-51
-100	-58	-85	-41	-56	-101	-23
-79	-50	-76	-39	-63	-88	28
-55	-48	-63	-47	-59	-69	39
-39	-52	-51	-60	-48	-58	14
-36	-55	-38	-67	-34	-59	-5
-43	-53	-27	-65	-23	-62	-10
-57	-47	-22	-55	-23	-63	-44
-68	-42	-25	-42	-34	-61	-98
-71	-37	-31	-30	-47	-54	-134
-69	-37	-38	-27	-59	-45	-101
-65	-43	-44	-32	-64	-47	-24
-62	-51	-48	-41	-58	-67	10
-59	-58	-47	-48	-41	-94	-42
-56	-60	-44	-52	-20	-114	-67
-49	-57	-40	-54	-4	-120	-7
-33	-47	-34	-48	4	-105	37
-9	-26	-22	-29	5	-73	-18
18	4	-3	2	2	-36	-68
42	36	18	38	-3	-8	-58
53	57	34	65	-8	-1	-41
49	57	37	69	-13	-8	-38
30	34	24	47	-17	-20	-1
7	-1	0	7	-20	-25	20
-7	-33	-22	-27	-18	-16	-18
-8	-45	-30	-38	-12	-2	-56
2	-32	-22	-22	-6	8	-29
19	-5	-4	5	-5	6	-6
32	19	11	26	-9	-5	-19
37	31	21	27	-14	-22	-8
37	30	24	10	-16	-28	73
34	19	20	-13	-11	-17	129
28	3	11	-33	-3	3	90
19	-13	-1	-39	1	18	7
8	-24	-15	-33	-1	27	-24
1	-29	-25	-20	-11	35	-6
-3	-30	-30	-9	-20	43	13
-6	-30	-32	-7	-24	47	5
-6	-29	-32	-14	-21	46	-23
-5	-28	-31	-26	-13	40	-70
-8	-29	-27	-38	-6	23	-79
-17	-30	-24	-44	-6	-9	-37
-33	-32	-20	-45	-13	-46	-10
-50	-33	-18	-39	-22	-70	-42
-66	-34	-20	-29	-29	-78	-48
-76	-38	-28	-18	-30	-74	7
-74	-40	-37	-9	-23	-54	52
-58	-38	-40	-2	-8	-21	32
-33	-30	-33	4	8	13	14
-9	-18	-19	10	21	38	22
9	-6	-2	15	28	51	45
19	3	11	20	32	54	64
21	6	15	23	30	48	72
20	3	12	25	25	42	48
19	0	7	23	21	43	52
19	-2	8	15	17	49	118
17	2	17	4	11	51	188
13	14	33	-4	2	49	187
13	31	53	0	-3	43	142
19	48	67	13	-2	36	74
28	55	69	31	3	31	19
30	45	51	36	10	28	20
16	19	20	23	14	22	61
-6	-10	-12	-1	16	10	44
-30	-31	-31	-27	16	-3	-9
-48	-41	-39	-44	10	-15	-10
-55	-45	-41	-50	2	-23	18
-54	-45	-44	-47	-6	-31	-24
-49	-46	-50	-44	-14	-41	-75
-48	-48	-56	-46	-19	-56	-50
-43	-42	-52	-45	-16	-69	31
-24	-19	-26	-30	-1	-66	85
8	13	12	-5	19	-38	90
44	38	44	19	34	4	44
68	43	53	32	40	41	-6
73	29	37	32	36	56	-3
58	3	5	19	28	39	34
32	-20	-25	2	21	0	22
11	-28	-37	-7	22	-41	-19
6	-18	-25	-5	27	-60	-33
15	2	0	0	33	-51	-8
28	17	19	2	32	-23	26
36	21	26	0	26	6	62
36	14	22	3	16	26	58
31	7	16	15	8	35	22
24	4	15	33	3	37	23
18	7	18	47	0	39	68
10	9	21	46	-5	41	55
0	6	17	25	-9	39	1
-10	-3	8	-8	-6	31	15
-19	-15	-2	-35	0	21	100
-23	-21	-8	-42	10	13	115
-23	-21	-10	-28	15	12	39
-22	-18	-10	-9	11	19	-36
-22	-16	-13	1	-3	28	-63
-27	-20	-20	0	-22	29	-71
-36	-28	-30	-12	-34	18	-50
-46	-36	-38	-25	-35	0	-14
-54	-39	-42	-26	-29	-13	-6
-60	-36	-41	-17	-21	-17	-40
-65	-30	-38	-8	-18	-10	-32
-65	-25	-34	-7	-16	1	41
-59	-24	-31	-15	-11	10	115
-46	-26	-29	-24	0	13	116
-29	-27	-28	-29	16	11	83
-15	-27	-27	-25	30	14	76
-12	-27	-27	-17	29	20	86
-23	-26	-27	-11	13	22	42
-40	-24	-24	-13	-12	14	-32
-52	-21	-17	-21	-34	-4	-55
-53	-17	-10	-31	-45	-25	-1
-44	-15	-9	-38	-46	-36	40
-30	-16	-17	-35	-40	-33	32
-15	-16	-29	-19	-32	-13	9
-2	-10	-34	10	-23	13	12
7	4	-25	43	-12	28	28
16	27	0	70	0	24	44
29	55	36	87	14	10	26
44	81	70	94	27	-1	-17
58	95	84	89	37	-7	-43
64	92	72	76	42	-14	-9
65	75	42	62	47	-21	29
61	53	11	51	52	-27	23
51	29	-10	38	54	-34	-15
38	9	-18	22	48	-41	-39
27	3	-9	10	33	-39	-36
19	8	8	4	15	-27	2
11	16	20	1	-2	-15	41
7	23	21	3	-12	-6	38
13	31	19	13	-7	11	-5
25	38	18	24	7	43	-2
35	38	15	25	18	76	63
34	29	11	13	14	93	112
28	18	10	0	0	87	81
20	15	17	-6	-13	62	35
13	16	26	-4	-17	26	28
6	18	31	1	-12	-4	21
-3	13	26	1	-7	-21	-43
-20	-3	7	-14	-9	-27	-101
-39	-25	-18	-39	-20	-33	-77
-51	-37	-35	-55	-33	-42	12
-44	-28	-30	-45	-36	-50	64
-19	2	-1	-11	-22	-49	48
12	42	40	34	0	-34	0
37	75	79	71	18	-4	-15
49	91	104	87	23	26	11
49	91	111	83	16	44	54
44	85	107	72	5	49	68
39	80	97	64	0	42	45
30	76	80	59	0	25	-5
14	66	56	49	0	0	-29
-9	46	27	31	-6	-22	-21
-31	22	2	12	-20	-34	-18
-39	5	-8	0	-34	-37	-45
-28	2	0	0	-42	-31	-50
0	16	24	16	-40	-16	-11
29	38	50	40	-31	-1	31
40	52	61	55	-23	2	23
24	45	46	48	-25	-12	-17
-11	17	10	21	-37	-34	-73
-49	-19	-31	-13	-49	-50	-89
-75	-51	-65	-44	-56	-53	-46
-80	-69	-82	-61	-54	-43	-11
-68	-69	-81	-60	-43	-25	-42
-48	-57	-68	-45	-23	-10	-42
-31	-44	-52	-30	-1	-10	48
-21	-34	-39	-20	17	-17	128
-10	-23	-25	-9	31	-11	125
12	-3	-4	10	44	25	134
49	29	24	41	54	91	173
90	65	55	75	62	164	176
115	84	70	91	61	212	150
107	73	60	77	46	210	144
64	33	29	34	16	157	92
4	-19	-9	-20	-21	77	-10
-49	-64	-41	-64	-57	6	-53
-79	-89	-61	-86	-77	-31	-9
-84	-95	-69	-93	-80	-37	-4
-75	-92	-73	-98	-71	-29	-51
-64	-89	-78	-107	-59	-27	-60
-59	-88	-81	-118	-50	-37	6
-57	-84	-76	-121	-47	-54	54
-52	-76	-62	-110	-46	-69	28
-40	-67	-48	-91	-38	-73	-35
-23	-64	-44	-74	-21	-66	-47
-7	-69	-53	-67	3	-54	-4
4	-75	-66	-68	28	-44	38
8	-75	-74	-71	46	-38	48
7	-65	-69	-67	52	-32	53
7	-42	-47	-52	50	-21	34
12	-10	-13	-29	43	-5	5
17	15	16	-9	33	10	8
16	22	26	-1	22	19	29
7	10	16	-3	15	19	-23
-8	-13	-7	-12	11	10	-99
-31	-48	-43	-33	6	-10	-79
-60	-86	-82	-63	0	-38	-6
-79	-107	-103	-88	-2	-60	-33
-78	-95	-89	-91	-1	-64	-112
-61	-55	-45	-72	-3	-51	-104
-39	-5	8	-39	-13	-33	-26
-19	33	50	-4	-26	-20	-6
-7	44	60	18	-35	-19	-27
-9	20	30	14	-37	-27	-22
-17	-25	-21	-11	-26	-33	-6
-18	-62	-63	-39	0	-28	-18
-8	-72	-75	-54	27	-16	-11
6	-57	-62	-54	43	-7	12
17	-31	-38	-45	43	-16	7
26	-5	-16	-28	36	-40	-35
36	18	1	-6	33	-59	-39
47	35	12	18	37	-52	-8
51	40	14	37	45	-22	-1
44	32	4	44	48	12	-51
23	7	-18	33	41	32	-86
-9	-34	-55	3	26	29	-43
-41	-82	-95	-33	10	7	45
-56	-112	-116	-59	6	-12	71
-44	-104	-102	-58	14	-4	31
-15	-63	-59	-31	27	28	5
12	-7	-6	8	35	61	31
31	42	38	49	35	74	36
38	71	65	81	33	64	5
38	76	71	98	30	39	-22
40	66	65	101	34	10	-10
50	55	61	98	43	-4	30
64	52	63	91	51	-2	79
70	53	68	80	49	3	84
66	60	74	71	39	5	39
59	72	86	72	31	7	-19
58	87	101	81	27	13	-27
60	97	112	89	24	17	4
65	96	112	90	21	11	36
66	83	98	85	17	1	30
60	62	75	75	11	-7	-1
49	42	51	63	5	-12	-23
43	32	37	56	5	-8	-18
46	35	38	55	9	0	-38
56	46	47	52	10	0	-87
62	55	54	42	3	-23	-118
58	55	54	31	-10	-60	-82
40	45	46	22	-22	-91	-33
15	29	32	19	-25	-95	-32
-5	14	22	21	-13	-70	-78
-11	7	19	26	9	-25	-83
-4	5	21	26	31	20	0
10	6	24	17	40	50	98
29	11	32	6	38	62	92
50	24	48	0	34	66	28
71	44	70	4	36	72	8
82	62	88	14	44	76	27
79	68	91	22	50	65	-1
59	57	72	20	47	35	-26
31	32	38	8	30	-4	6
8	6	5	-4	8	-39	30
8	-4	-7	-9	-3	-55	-14
32	7	5	-1	3	-47	-33
66	34	33	12	20	-24	5
86	59	57	26	32	-5	0
80	68	63	33	32	-4	-87
49	59	47	31	20	-15	-106
8	35	16	20	0	-24	-14
-27	7	-13	5	-15	-22	40
-42	-12	-28	-8	-21	-6	-34
-35	-16	-22	-20	-21	17	-74
-17	-7	-2	-23	-23	40	26
0	7	20	-16	-30	53	120
13	21	38	-1	-34	53	61
17	30	45	14	-33	46	-30
13	31	40	21	-25	40	-26
6	26	32	16	-14	39	20
-1	19	29	4	-7	42	22
-10	14	32	-10	-8	49	32
-19	8	35	-18	-13	62	54
-30	-1	31	-18	-17	75	36
-43	-16	12	-16	-16	77	4
-53	-33	-16	-16	-13	68	30
-56	-44	-46	-16	-11	50	49
-50	-45	-65	-12	-16	22	9
-38	-36	-69	-3	-26	-9	-30
-23	-21	-58	10	-32	-31	-14
-16	-9	-44	21	-32	-39	-13
-28	-14	-41	18	-32	-50	-51
-54	-32	-55	1	-37	-69	-99
-80	-51	-73	-14	-48	-88	-132
-94	-62	-86	-20	-64	-105	-143
-98	-65	-93	-18	-82	-122	-106
-92	-60	-90	-13	-91	-132	-85
-76	-45	-71	-4	-81	-121	-126
-60	-25	-45	-2	-58	-93	-157
-51	-10	-19	-8	-35	-61	-88
-43	3	4	-10	-16	-25	-21
-30	17	27	-2	-3	14	-30
-15	28	43	9	1	47	-37
0	34	52	17	1	67	19
17	41	61	24	6	84	55
41	55	76	33	20	105	63
62	68	88	40	33	122	75
67	69	83	39	37	123	51
59	58	63	33	31	111	-29
40	37	35	21	21	90	-30
10	9	1	-2	5	60	57
-19	-18	-27	-29	-9	31	89
-32	-32	-36	-42	-11	22	32
-25	-30	-28	-38	0	33	7
-12	-29	-23	-30	11	43	11
-12	-43	-38	-36	8	35	-21
-29	-70	-71	-57	-7	10	-60
-54	-92	-104	-81	-27	-25	-55
-73	-99	-119	-93	-43	-59	-66
-77	-84	-108	-83	-49	-79	-85
-63	-53	-78	-53	-42	-78	-65
-42	-23	-45	-21	-29	-65	-52
-25	-9	-27	-3	-17	-52	-121
-18	-14	-28	-5	-9	-44	-175
-12	-23	-32	-14	-2	-39	-105
5	-15	-21	-5	9	-30	26
36	13	12	26	22	-16	75
68	50	54	67	28	3	53
85	78	85	95	20	23	35
79	84	92	98	0	38	53
54	65	74	75	-19	47	70
22	32	41	37	-27	49	67
2	1	11	3	-18	54	32
1	-17	-3	-13	3	67	10
8	-26	-8	-20	22	78	29
12	-32	-12	-26	26	83	56
7	-34	-18	-34	17	80	26
-5	-34	-29	-40	2	67	-16
-27	-38	-46	-45	-12	41	-21
-48	-42	-64	-45	-20	12	3
-60	-46	-75	-38	-20	-6	20
-70	-55	-82	-35	-23	-20	42
-82	-73	-91	-40	-38	-39	50
-92	-89	-96	-51	-57	-59	37
-92	-90	-91	-55	-67	-67	26
-83	-80	-81	-52	-65	-64	23
-75	-71	-77	-51	-58	-58	-24
-71	-66	-81	-57	-54	-52	-98
-69	-65	-86	-67	-53	-49	-136
-70	-64	-85	-78	-58	-51	-103
-70	-60	-76	-87	-61	-56	-38
-61	-46	-52	-79	-55	-43	16
-34	-14	-10	-45	-29	1	22
6	28	40	9	8	72	25
48	70	85	67	43	143	98
83	102	116	111	65	190	206
106	123	133	133	75	200	213
115	129	134	125	79	176	134
103	112	114	87	73	127	65
74	79	79	35	58	75	27
36	39	37	-10	36	32	-30
-5	-2	-7	-43	7	-1	-71
-46	-44	-51	-68	-23	-37	-81
-72	-74	-83	-82	-44	-74	-84
-76	-84	-92	-82	-43	-103	-66
-62	-76	-83	-77	-26	-120	6
-43	-61	-65	-71	-7	-124	55
-24	-39	-42	-57	5	-115	20
-8	-14	-19	-35	12	-99	-49
-3	0	-8	-19	10	-89	-58
-11	-2	-15	-18	2	-94	-47
-26	-18	-32	-27	-6	-108	-79
-36	-33	-45	-33	-12	-118	-130
-40	-41	-49	-34	-19	-115	-114
-39	-41	-43	-29	-27	-101	-42
-31	-28	-26	-13	-31	-78	8
-14	-4	-2	11	-27	-51	-10
5	15	15	27	-16	-28	-47
19	22	20	28	-6	-12	-87
28	21	19	20	0	0	-114
31	16	19	10	0	9	-97
22	7	17	0	-6	11	-34
6	-2	15	-3	-15	4	-17
-3	-1	21	9	-19	-4	-51
0	10	34	35	-14	-9	-33
13	23	43	56	-5	-5	56
28	29	42	61	1	11	75
39	26	32	48	5	31	24
39	13	13	20	7	40	27
24	-5	-9	-11	5	33	101
6	-19	-27	-28	4	15	99
-2	-19	-33	-22	6	-2	24
-2	-10	-28	-1	12	-12	-14
4	0	-19	18	22	-8	-9
12	6	-13	28	35	1	-20
18	2	-13	20	48	4	3
21	-5	-18	1	58	-2	61
27	-5	-19	-9	64	-9	57
42	10	-6	0	66	-8	-26
59	35	14	18	59	0	-36
64	53	32	31	39	5	38
52	57	39	32	10	3	53
32	46	34	23	-16	-6	-27
10	25	20	11	-31	-19	-61
-3	0	1	2	-31	-22	-9
-3	-16	-11	2	-15	-9	40
7	-23	-14	6	8	13	20
13	-26	-14	2	22	23	-19
6	-28	-16	-13	13	6	-46
-4	-22	-12	-26	-12	-26	-47
-8	-3	2	-23	-37	-56	-47
-2	18	21	-8	-50	-67	-58
10	33	38	7	-46	-59	-73
34	42	54	21	-19	-34	-61
62	51	72	31	21	-4	-37
78	55	83	34	56	10	-21
74	52	83	31	70	-1	-25
54	48	74	30	64	-24	-28
26	43	61	35	49	-42	-33
-1	33	43	36	31	-51	-18
-19	20	27	32	16	-51	1
-17	15	22	31	13	-42	-10
4	21	33	35	18	-26	-68
29	35	51	42	21	-14	-106
44	47	67	52	17	-7	-77
47	55	73	63	12	3	5
37	53	66	69	10	20	59
19	40	46	62	12	36	39
0	20	21	41	17	47	-29
-12	-1	-2	11	25	50	-36
-21	-23	-21	-21	30	38	11
-30	-44	-38	-47	29	12	18
-35	-58	-48	-56	27	-12	-44
-32	-60	-48	-47	32	-21	-64
-20	-52	-39	-29	45	-15	-20
-6	-41	-28	-15	59	-3	6
5	-33	-18	-17	69	4	-24
10	-31	-14	-30	71	4	-42
7	-35	-17	-44	64	-4	-37
-4	-44	-29	-54	48	-14	-15
-21	-55	-45	-57	29	-18	13
-35	-60	-57	-52	17	-12	29
-40	-57	-59	-40	14	0	0
-39	-49	-53	-29	18	13	-31
-36	-39	-41	-23	23	17	-28
-28	-25	-25	-16	26	15	8
-18	-8	-8	-9	24	17	41
-13	2	0	-10	15	25	58
-11	6	0	-20	6	36	38
-5	9	1	-27	7	53	34
6	14	7	-26	20	74	68
15	19	14	-18	32	87	74
20	25	22	-4	37	85	-4
29	42	37	19	34	70	-55
42	66	57	46	26	49	-6
50	87	75	65	17	28	41
50	98	87	73	11	11	-7
42	96	89	72	14	6	-60
27	83	80	64	18	15	-67
7	60	59	51	15	31	-57
-11	33	31	34	0	39	-39
-24	10	7	13	-21	31	-2
-26	-2	-3	-6	-39	15	-16
-21	-5	0	-19	-46	4	-71
-14	-1	11	-23	-38	5	-71
-4	6	23	-18	-21	20	-19
7	18	32	0	-3	45	-25
20	29	33	24	7	67	-59
24	30	22	42	3	68	-43
19	20	6	45	-10	49	1
7	7	-4	35	-26	24	7
-8	-5	-10	15	-36	2	14
-22	-17	-15	-10	-39	-9	22
-25	-22	-17	-30	-32	-7	-6
-11	-14	-14	-33	-15	7	-34
10	-1	-8	-20	3	24	-6
24	6	-6	-4	12	31	-12
24	4	-7	7	9	23	-101
11	-1	-6	12	-4	7	-160
-7	-10	-8	10	-25	-10	-74
-26	-21	-16	0	-48	-24	29
-34	-28	-23	-8	-64	-29	29
-23	-23	-20	-3	-65	-18	-13
1	-10	-7	14	-53	1	-3
25	4	10	36	-35	18	1
40	14	25	49	-17	26	-27
42	18	34	48	-2	24	-30
34	17	32	33	3	14	-10
23	11	24	12	4	-4	-62
21	9	18	0	3	-22	-127
30	16	21	4	4	-30	-104
44	28	30	22	2	-28	-53
53	39	38	41	-3	-19	-89
56	48	44	55	-7	-2	-116
57	55	50	60	-7	18	-39
56	58	54	55	-3	34	44
58	57	56	47	5	42	12
63	53	54	42	17	50	-41
63	43	47	35	23	56	-22
52	27	30	21	18	52	37
32	10	10	2	7	36	71
11	-2	-2	-12	0	17	91
-6	-10	-7	-23	-4	0	65
-19	-16	-6	-30	-4	-13	-20
-27	-21	-2	-31	-3	-12	-87
-30	-23	1	-26	-4	3	-57
-32	-22	-1	-22	-11	23	-13
-32	-18	-10	-16	-22	31	-31
-27	-9	-18	-6	-26	29	-64
-20	-1	-25	1	-24	22	-25
-21	-6	-37	-3	-27	10	19
-31	-23	-50	-20	-37	-6	-3
-44	-40	-57	-37	-52	-21	-41
-51	-45	-53	-48	-67	-35	-8
-50	-38	-40	-48	-77	-46	52
-42	-22	-25	-39	-76	-51	71
-30	-8	-14	-25	-65	-43	46
-23	-8	-19	-21	-49	-22	16
-24	-26	-40	-31	-35	1	-34
-24	-49	-63	-43	-22	19	-64
-18	-63	-73	-51	-13	20	-45
-10	-65	-72	-55	-11	-1	-25
-6	-60	-65	-59	-19	-36	-83
-12	-55	-60	-59	-33	-71	-155
-28	-55	-63	-56	-48	-93	-141
-51	-65	-77	-49	-63	-103	-78
-71	-78	-95	-40	-71	-105	-81
-77	-81	-103	-23	-71	-106	-109
-66	-69	-93	-2	-66	-111	-68
-40	-40	-65	17	-58	-105	40
-2	5	-18	39	-42	-68	119
40	59	37	69	-14	6	161
76	105	89	102	20	99	178
96	129	122	125	54	179	158
99	128	132	128	77	219	101
88	107	117	109	80	204	76
68	75	85	74	61	146	80
48	49	52	38	29	79	48
36	37	30	17	2	32	-25
25	32	17	12	-14	8	-27
0	15	0	7	-27	-6	37
-41	-20	-30	-16	-39	-27	54
-86	-68	-69	-55	-50	-58	-13
-119	-109	-106	-96	-53	-93	-44
-131	-130	-129	-122	-48	-116	-10
-124	-129	-136	-127	-36	-122	4
-108	-113	-130	-113	-24	-111	-39
-93	-94	-118	-92	-19	-93	-65
-87	-81	-104	-77	-23	-76	-76
-85	-70	-88	-71	-33	-67	-79
-83	-60	-68	-68	-42	-71	-62
-80	-50	-49	-64	-43	-83	-43
-80	-46	-39	-58	-40	-97	-86
-86	-51	-42	-52	-37	-105	-124
-88	-56	-48	-42	-32	-96	-63
-78	-50	-47	-25	-20	-67	30
-53	-31	-31	-3	-1	-27	35
-24	-6	-6	14	17	6	15
-5	10	16	16	29	24	23
-2	13	25	0	30	28	24
-16	-1	19	-25	19	23	-4
-39	-25	0	-52	3	14	-7
-58	-46	-23	-66	-10	6	-22
-63	-55	-39	-61	-12	0	-69
-57	-54	-50	-44	-6	-5	-75
-49	-51	-57	-27	2	-11	-8
-42	-48	-61	-19	9	-18	15
-35	-42	-57	-17	15	-23	-39
-30	-32	-46	-16	18	-32	-90
-27	-20	-31	-12	15	-47	-74
-24	-6	-15	-3	7	-65	-48
-18	5	-4	8	-4	-74	-46
-6	11	0	21	-15	-62	-58
12	14	0	29	-20	-28	-39
35	17	0	32	-13	15	5
54	20	2	27	2	52	41
62	22	8	18	21	71	29
56	25	19	11	39	71	-12
44	32	36	9	50	56	-56
33	40	53	9	54	33	-44
26	42	62	7	50	12	32
22	32	56	0	44	0	90
18	11	34	-14	38	-6	42
11	-14	8	-30	32	-5	-30
4	-33	-10	-37	28	2	-22
2	-30	-6	-23	27	17	18
14	0	22	11	31	33	-1
36	45	65	56	38	40	-12
62	88	103	93	45	35	33
83	115	124	114	52	28	83
95	120	124	115	58	28	80
93	105	108	97	59	38	71
79	78	84	67	57	56	68
64	51	64	41	55	78	45
57	34	53	26	59	89	13
57	24	45	19	66	74	36
60	15	34	14	73	36	71
64	11	24	14	80	-6	33
68	15	20	20	83	-39	-52
66	25	24	27	78	-52	-27
58	36	31	29	65	-45	77
46	39	37	27	48	-28	84
36	35	38	22	33	-15	-13
34	24	34	15	23	-13	-37
41	15	28	10	21	-18	11
57	17	28	14	23	-23	9
77	34	39	29	25	-21	-21
92	57	54	50	23	-3	2
95	71	62	64	18	30	3
75	59	51	57	6	64	-24
31	17	17	20	-13	78	-4
-24	-41	-29	-37	-41	64	24
-75	-91	-66	-97	-69	31	-28
-107	-114	-82	-137	-92	-8	-64
-118	-110	-78	-141	-105	-42	-15
-107	-86	-61	-111	-99	-53	24
-80	-57	-41	-67	-73	-41	7
-51	-39	-29	-35	-35	-23	10
-28	-34	-27	-28	3	-17	-2
-5	-30	-22	-39	42	-19	-43
17	-17	-7	-53	74	-17	-36
31	-1	7	-59	88	-10	7
27	6	12	-54	85	-3	-35
13	5	9	-37	74	5	-90
1	2	5	-15	62	9	-22
-1	4	6	4	52	3	82
13	17	18	23	48	-8	63
45	44	40	45	49	-15	-15
81	76	67	68	47	-7	-53
107	105	89	91	37	10	-57
116	123	102	107	20	31	-55
112	130	108	116	4	42	-29
105	129	109	122	-5	40	-25
99	124	104	123	-8	25	-53
86	107	86	111	-12	3	-57
60	74	51	87	-25	-19	-33
20	31	5	54	-44	-29	-56
-26	-11	-37	20	-62	-20	-89
-71	-47	-69	-9	-75	0	-68
-104	-71	-86	-32	-78	15	-13
-121	-81	-91	-43	-71	15	3
-124	-83	-90	-50	-61	-4	-8
-122	-83	-89	-55	-54	-36	-50
-112	-79	-86	-56	-45	-62	-121
-92	-67	-75	-47	-24	-64	-144
-64	-51	-57	-33	8	-42	-59
-36	-35	-39	-20	47	-9	13
-13	-22	-25	-12	80	17	-13
0	-15	-19	-6	98	24	-58
0	-14	-21	-4	96	8	-23
-9	-16	-26	-2	77	-13	22
-18	-17	-28	2	53	-23	22
-18	-13	-20	12	34	-11	14
-5	0	0	24	21	18	30
15	23	30	36	9	56	32
38	51	63	45	-6	87	16
55	77	92	51	-28	98	-14
